#ZVView-data-copy:  26-Feb-2021 10:43:30
#=======================================
#
#name:   ENDF/B-VIII.0: AL-27(N,EL)AL-27-L0
#X.axis: Incident Energy
#Y.axis: Cross Section
#wdata:  2
#ldata:  3891
#data...
#            X            Y
#          MeV        barns
         1e-11      15.6821 
   1.10304e-11      14.9371 
   1.21669e-11       14.228 
   1.34206e-11      13.5532 
   1.48034e-11      12.9109 
   1.63287e-11      12.2996 
   1.80949e-11      11.6912 
   1.99594e-11       11.139 
   2.20159e-11      10.6136 
   2.42843e-11      10.1137 
   2.67865e-11      9.63813 
   2.95465e-11      9.18574 
   3.25909e-11      8.75544 
   3.59489e-11      8.34618 
    3.9653e-11      7.95699 
   4.37387e-11      7.58692 
   4.82454e-11      7.23508 
   5.32165e-11      6.90064 
   5.86998e-11      6.58277 
    6.4748e-11      6.28072 
   7.19196e-11      5.97389 
   7.98897e-11      5.68338 
   8.87385e-11      5.40867 
   9.85723e-11      5.14873 
    1.0949e-10      4.90309 
   1.21625e-10      4.67081 
   1.35096e-10       4.4515 
   1.50067e-10      4.24431 
   1.66688e-10      4.04887 
   1.85161e-10      3.86442 
   2.05669e-10      3.69065 
   2.28462e-10      3.52686 
   2.53766e-10      3.37277 
   2.81889e-10      3.22776 
   3.13111e-10      3.09156 
    3.4781e-10      2.96364 
    3.8906e-10      2.83598 
   4.35202e-10      2.71692 
   4.86816e-10      2.60606 
   5.44552e-10      2.50298 
   6.09135e-10      2.40729 
    6.8615e-10      2.31333 
   7.72941e-10      2.22684 
   8.70667e-10      2.14747 
   9.80797e-10      2.07475 
     1.1126e-9      2.00463 
    1.26211e-9      1.94111 
    1.44174e-9      1.88075 
    1.65855e-9      1.82405 
    1.90797e-9       1.7738 
    2.21039e-9      1.72735 
    2.57867e-9      1.68495 
    3.05075e-9      1.64517 
    3.63454e-9      1.61003 
    4.39136e-9      1.57824 
     5.4183e-9      1.54924 
    6.82721e-9      1.52362 
    8.84735e-9      1.50112 
    1.19568e-8      1.48134 
    1.69716e-8      1.46471 
    2.52118e-8      1.45175 
       2.53e-8      1.45165 
    4.27851e-8      1.44078 
    8.74161e-8      1.43275 
    2.68123e-7      1.42755 
    4.41767e-6       1.4249 
    0.00073397      1.38019 
    0.00177762      1.32933 
    0.00329111      1.26824 
     0.0046415       1.2217 
     0.0051087      1.21164 
    0.00516062      1.21143 
    0.00533365       1.2145 
    0.00543748      1.22215 
    0.00551102      1.23376 
    0.00556293      1.24814 
    0.00560186      1.26493 
    0.00562782      1.28071 
    0.00565377      1.30206 
    0.00567973      1.33162 
    0.00569919      1.36196 
    0.00571217      1.38769 
    0.00572515      1.41937 
    0.00573813      1.45896 
    0.00574786      1.49547 
     0.0057576      1.53961 
    0.00576733      1.59363 
    0.00577382      1.63662 
    0.00578031      1.68658 
    0.00578658      1.74288 
    0.00579264      1.80661 
    0.00579869      1.88181 
    0.00580323      1.94727 
    0.00580778      2.02211 
    0.00581253      2.11253 
    0.00581729      2.21825 
    0.00582086      2.30973 
    0.00582443       2.4137 
    0.00582789      2.52866 
    0.00583114      2.65145 
    0.00583438      2.79156 
    0.00583762      2.95237 
    0.00583979      3.07315 
    0.00584195      3.20652 
    0.00584411      3.35431 
    0.00584606      3.50139 
    0.00584801       3.6637 
    0.00584995       3.8434 
     0.0058519      4.04303 
    0.00585385      4.26559 
    0.00585579      4.51463 
    0.00585774      4.79445 
    0.00585969      5.11032 
     0.0058615       5.4434 
    0.00586287      5.72141 
    0.00586423      6.02711 
    0.00586559      6.36426 
    0.00586695       6.7372 
    0.00586817      7.10291 
    0.00586938      7.50518 
    0.00587059      7.94897 
     0.0058718      8.44006 
     0.0058731      9.02648 
     0.0058744      9.68495 
    0.00587526      10.1698 
    0.00587613       10.696 
    0.00587699      11.2682 
    0.00587786      11.8918 
    0.00587872      12.5729 
    0.00587959      13.3183 
    0.00588045      14.1359 
    0.00588132      15.0349 
    0.00588218      16.0255 
    0.00588305      17.1198 
    0.00588391      18.3313 
    0.00588478      19.6755 
    0.00588564      21.1702 
    0.00588629      22.4019 
    0.00588694      23.7388 
    0.00588759       25.191 
    0.00588824      26.7693 
    0.00588889      28.4853 
    0.00588954       30.351 
    0.00589019      32.3788 
    0.00589083      34.5807 
    0.00589148      36.9687 
    0.00589213      39.5531 
    0.00589278      42.3427 
    0.00589343      45.3431 
    0.00589429      49.6735 
    0.00589516      54.3691 
    0.00589602      59.3948 
    0.00589732      67.4047 
    0.00589949       81.024 
    0.00590052       87.032 
     0.0059013      91.0187 
      0.005902      94.0518 
    0.00590264      96.3678 
    0.00590329      98.1024 
    0.00590392      99.1816 
    0.00590462      99.6359 
    0.00590468      99.6387 
    0.00590539       99.224 
     0.0059061      98.0002 
    0.00590658      96.7572 
    0.00590721      94.6367 
    0.00590783       92.024 
    0.00590846      88.9898 
     0.0059094      83.8182 
    0.00591066      76.1835 
     0.0059129       62.131 
    0.00591393      55.9899 
    0.00591471      51.6732 
    0.00591549      47.6414 
    0.00591627      43.9099 
    0.00591705      40.4812 
    0.00591783      37.3482 
    0.00591861      34.4968 
    0.00591939      31.9091 
    0.00592021      29.4414 
    0.00592081      27.7821 
    0.00592142       26.247 
    0.00592202      24.8264 
    0.00592263      23.5112 
    0.00592324      22.2931 
    0.00592414      20.6304 
    0.00592475      19.6211 
    0.00592553      18.4278 
    0.00592631      17.3404 
    0.00592709      16.3476 
    0.00592786      15.4396 
    0.00592864      14.6076 
    0.00592942      13.8437 
     0.0059302      13.1411 
    0.00593098      12.4937 
    0.00593184      11.8326 
    0.00593271      11.2264 
    0.00593357      10.6694 
    0.00593487      9.91537 
    0.00593617       9.2464 
    0.00593747      8.65045 
    0.00593857      8.19481 
     0.0059399      7.69508 
    0.00594124      7.24638 
    0.00594258      6.84204 
    0.00594391      6.47643 
    0.00594525      6.14484 
    0.00594658      5.84327 
    0.00594792      5.56828 
    0.00594952      5.26956 
    0.00595138      4.95826 
    0.00595325      4.68104 
    0.00595511       4.4331 
    0.00595698      4.21047 
    0.00595885      4.00987 
    0.00596071      3.82852 
    0.00596258      3.66404 
    0.00596459      3.50307 
    0.00596675      3.34704 
    0.00596892      3.20622 
    0.00597216       3.0194 
    0.00597541      2.85729 
    0.00597865      2.71571 
     0.0059819      2.59133 
    0.00598514      2.48148 
    0.00598838      2.38398 
    0.00599163      2.29705 
    0.00599595      2.19514 
    0.00599971      2.11761 
     0.0060045      2.03096 
    0.00600928      1.95566 
    0.00601407      1.88993 
    0.00602045      1.81451 
    0.00602716      1.74743 
    0.00603419      1.68783 
    0.00604121      1.63709 
    0.00605176      1.57401 
    0.00606149      1.52647 
    0.00607123      1.48688 
     0.0060842      1.44358 
    0.00609718      1.40856 
    0.00611665      1.36731 
    0.00612963      1.34543 
    0.00615558      1.31104 
    0.00618154      1.28546 
    0.00622047      1.25772 
     0.0062594      1.23805 
    0.00632429      1.21566 
    0.00640649      1.19746 
    0.00652761      1.18052 
    0.00673526      1.16281 
    0.00715055      1.14072 
    0.00823203      1.09894 
     0.0133453     0.917419 
     0.0165167     0.798018 
     0.0207597     0.633091 
     0.0219795     0.589222 
     0.0227927     0.563215 
     0.0234842     0.544512 
     0.0241634     0.530071 
     0.0242192     0.529475 
     0.0242502     0.530739 
     0.0242626     0.533217 
      0.024271     0.537525 
     0.0242752     0.542165 
     0.0242784     0.548838 
       0.02428     0.554621 
     0.0242816     0.563705 
     0.0242827     0.572756 
     0.0242838     0.585453 
     0.0242846     0.598276 
     0.0242854     0.614834 
     0.0242861     0.634699 
     0.0242868     0.656196 
     0.0242874     0.682395 
     0.0242881     0.714141 
     0.0242885     0.738844 
      0.024289     0.766725 
     0.0242894     0.798077 
     0.0242898     0.833235 
     0.0242903     0.872496 
     0.0242907     0.916192 
     0.0242911     0.964618 
     0.0242916       1.0181 
      0.024292      1.07689 
     0.0242924      1.14127 
     0.0242929      1.21144 
     0.0242933      1.29114 
     0.0242938      1.37749 
     0.0242942       1.4706 
     0.0242947      1.57044 
     0.0242952      1.67694 
     0.0242958      1.84869 
     0.0242965      2.03376 
     0.0242972      2.22912 
     0.0242982      2.53859 
     0.0243004      3.22118 
     0.0243011      3.44249 
     0.0243019       3.6402 
     0.0243027      3.84138 
     0.0243035      4.00014 
      0.024304      4.09803 
     0.0243048      4.18629 
     0.0243053      4.23066 
      0.024306      4.25425 
     0.0243062      4.25463 
     0.0243067      4.24316 
     0.0243072      4.20882 
     0.0243079      4.13687 
     0.0243085      4.04448 
     0.0243092       3.9254 
       0.02431      3.74423 
     0.0243109      3.50995 
     0.0243118      3.24987 
     0.0243143      2.45353 
     0.0243154      2.15099 
      0.024316      1.96185 
     0.0243167      1.79932 
     0.0243172      1.66152 
     0.0243178      1.53377 
     0.0243184      1.41634 
     0.0243189      1.30926 
     0.0243194      1.23566 
     0.0243198      1.16771 
     0.0243202      1.10519 
     0.0243207      1.04794 
     0.0243211     0.994028 
     0.0243216     0.942202 
      0.024322     0.895742 
     0.0243225     0.854279 
      0.024323     0.817414 
     0.0243234     0.784774 
     0.0243239     0.755952 
     0.0243244     0.730606 
      0.024325     0.701599 
     0.0243256      0.67736 
     0.0243262     0.657179 
     0.0243269     0.640425 
     0.0243275     0.626544 
     0.0243284     0.610067 
     0.0243294     0.597623 
     0.0243303     0.588166 
     0.0243314     0.579762 
     0.0243329     0.571852 
     0.0243348     0.564634 
     0.0243377     0.557591 
     0.0243425     0.550419 
     0.0243503     0.543905 
     0.0243619     0.538767 
     0.0243864     0.533937 
     0.0244274     0.530789 
     0.0245438     0.527549 
     0.0247767     0.524965 
     0.0251117        0.524 
      0.025466     0.526156 
     0.0257818     0.531046 
     0.0261168     0.540104 
     0.0263262     0.548094 
     0.0265356     0.558158 
      0.026745     0.570556 
     0.0269544     0.585593 
     0.0271721     0.604404 
     0.0273899     0.626888 
     0.0275909     0.651548 
     0.0277919     0.679907 
     0.0279259     0.701467 
     0.0280934     0.731577 
      0.028261     0.765558 
      0.028395     0.795841 
      0.028529     0.829164 
      0.028663     0.865806 
      0.028797     0.906086 
      0.028931     0.950356 
      0.029065     0.999007 
      0.029199      1.05248 
     0.0293331      1.11125 
     0.0294671      1.17588 
     0.0296011      1.24696 
     0.0297351      1.32517 
     0.0298691      1.41129 
     0.0300031      1.50618 
     0.0301371      1.61079 
     0.0302711      1.72622 
     0.0304051      1.85371 
     0.0305392      1.99464 
     0.0306732      2.15059 
     0.0308072      2.32324 
     0.0309077      2.46535 
     0.0310082      2.61829 
     0.0311087      2.78473 
     0.0312092      2.96397 
     0.0313097      3.15933 
     0.0314102      3.36999 
     0.0315107      3.59994 
     0.0316112      3.84824 
     0.0317117       4.1197 
     0.0318123       4.4132 
     0.0319128      4.73454 
     0.0320133      5.08238 
     0.0321138      5.46368 
     0.0322143      5.87684 
     0.0323148      6.33014 
     0.0324153      6.82161 
     0.0325158      7.36105 
     0.0326163      7.94593 
     0.0327168       8.5876 
     0.0328173      9.28277 
     0.0329178      10.0442 
     0.0330184      10.8674 
     0.0331189       11.766 
     0.0332194      12.7337 
     0.0333199      13.7839 
     0.0334204      14.9075 
     0.0335209      16.1156 
     0.0336214       17.396 
     0.0337889      19.6956 
     0.0339313      21.7648 
      0.034258      26.6169 
      0.034392      28.5037 
     0.0344925      29.7833 
      0.034593      30.9288 
     0.0346935      31.8857 
     0.0348007       32.697 
     0.0348962      33.1851 
      0.034995      33.4911 
      0.035062      33.5624 
     0.0351625      33.4727 
      0.035263      33.1842 
     0.0353636      32.6917 
     0.0354641      32.0448 
     0.0355981      30.9701 
     0.0357656      29.3962 
     0.0363016       23.833 
     0.0365026      21.8729 
     0.0366367      20.6464 
     0.0367707      19.4938 
     0.0369047      18.4167 
     0.0370387      17.4143 
     0.0371727      16.4841 
     0.0373067      15.6224 
     0.0374407       14.825 
     0.0375747      14.0874 
     0.0377088      13.4053 
     0.0378428      12.7741 
     0.0379768      12.1897 
     0.0381108      11.6482 
     0.0382448      11.1459 
     0.0384458      10.4557 
     0.0386468      9.84221 
     0.0388478      9.28499 
     0.0390489      8.78659 
     0.0392499       8.3314 
     0.0394509       7.9216 
     0.0397189      7.42921 
     0.0399869       6.9924 
      0.040255      6.60302 
      0.040523      6.25432 
      0.040791      5.94068 
      0.041126      5.59022 
     0.0414778      5.26677 
     0.0417291      5.05725 
     0.0419971      4.85305 
      0.042374      4.59476 
     0.0428054      4.33202 
     0.0432241      4.10641 
     0.0435382      3.95286 
     0.0438733      3.80307 
     0.0443758       3.6018 
     0.0448783      3.42102 
     0.0453809      3.26139 
     0.0458834      3.11637 
     0.0465529      2.94552 
     0.0471604       2.8081 
     0.0479794      2.64468 
     0.0485255      2.54744 
      0.049345       2.4169 
     0.0501655      2.29953 
      0.050986      2.19592 
       0.05208      2.07301 
      0.053174      1.96541 
      0.054268      1.87056 
      0.055362      1.78658 
     0.0564561      1.71211 
     0.0578236      1.63074 
     0.0591911      1.56186 
     0.0605586      1.50475 
     0.0616252       1.4689 
     0.0628552      1.43625 
     0.0640047      1.41657 
      0.065044      1.40799 
     0.0653722       1.4072 
     0.0665756      1.41496 
     0.0674508      1.43168 
     0.0681072      1.45177 
     0.0687636      1.47825 
       0.06942      1.51366 
     0.0700764       1.5574 
      0.070514      1.59273 
     0.0709516      1.63329 
     0.0713892      1.67964 
     0.0718268      1.73239 
     0.0722644      1.79226 
     0.0727021      1.86003 
     0.0731396       1.9366 
     0.0735772        2.023 
     0.0740148      2.12038 
     0.0744525      2.23007 
     0.0748901      2.35355 
     0.0753277      2.49255 
     0.0757653      2.64898 
     0.0762029      2.82502 
     0.0765311      2.97204 
     0.0768593      3.13151 
     0.0771875      3.30729 
     0.0775157      3.49794 
     0.0778439      3.70815 
     0.0781721      3.93618 
     0.0785003      4.18762 
     0.0788285      4.46037 
     0.0791567      4.76102 
     0.0794849      5.08697 
     0.0798131       5.4459 
     0.0801413      5.83453 
     0.0804695      6.26156 
     0.0807977      6.72281 
     0.0811259       7.2277 
     0.0814541      7.77083 
     0.0817823      8.36164 
     0.0821105       8.9931 
     0.0824387       9.6782 
     0.0827669      10.3938 
     0.0832045      11.4195 
     0.0837515      12.7845 
     0.0848455      15.6073 
     0.0852831      16.6834 
     0.0857207      17.6494 
     0.0860599      18.2911 
     0.0863115      18.7081 
     0.0865959      19.0898 
     0.0869241      19.4077 
     0.0872523      19.6067 
     0.0875805      19.6676 
     0.0879908      19.5598 
     0.0883463      19.3281 
     0.0886745      19.0005 
     0.0890574      18.5209 
     0.0895497       17.777 
     0.0903702      16.4307 
      0.090589      16.1427 
     0.0906984      16.0569 
     0.0907531      16.0446 
     0.0908249      16.0826 
     0.0908728      16.1616 
     0.0909207      16.3131 
     0.0909566      16.4996 
     0.0909925      16.7817 
     0.0910164      17.0458 
     0.0910403      17.3962 
     0.0910602      17.7747 
       0.09108      18.2579 
     0.0910949      18.7065 
     0.0911098      19.2446 
     0.0911243      19.8672 
     0.0911378      20.5546 
     0.0911513      21.3502 
     0.0911648      22.2525 
     0.0911829      23.5906 
     0.0912059      25.3379 
     0.0912198      26.2537 
     0.0912303      26.7739 
     0.0912407      27.0933 
     0.0912493      27.1797 
     0.0912579      27.0998 
     0.0912665      26.8592 
     0.0912722      26.6173 
     0.0912836      25.9711 
      0.091295      25.1679 
     0.0913291      22.4875 
     0.0913462      21.2598 
     0.0913633      20.1942 
     0.0913803      19.2948 
     0.0913961      18.5965 
     0.0914113      18.0306 
     0.0914264      17.5506 
     0.0914466      17.0193 
     0.0914669      16.5862 
     0.0914911      16.1651 
     0.0915154      15.8249 
     0.0915518      15.4238 
     0.0915892      15.1042 
     0.0916397      14.7709 
     0.0917196      14.3826 
     0.0917742      14.1743 
     0.0918955       13.803 
     0.0920976      13.3197 
     0.0923402      12.8344 
     0.0927142      12.1729 
     0.0932702      11.2915 
     0.0938767      10.4279 
     0.0944832      9.65138 
     0.0948875      9.17712 
     0.0952919        8.735 
     0.0956962      8.32278 
     0.0961005      7.93831 
     0.0965049      7.57952 
     0.0971114      7.08761 
     0.0977179      6.63834 
     0.0983244      6.23314 
      0.099032      5.80671 
     0.0996714      5.45998 
     0.0996791      5.45938 
     0.0996925      5.47965 
     0.0996978       5.5118 
     0.0997039      5.58552 
     0.0997085      5.67957 
      0.099713      5.80413 
     0.0997235      6.13986 
     0.0997272       6.2254 
     0.0997308      6.26764 
     0.0997323      6.27172 
     0.0997356      6.25078 
     0.0997393       6.1835 
     0.0997448      6.02622 
     0.0997536      5.74923 
     0.0997583       5.6367 
     0.0997634      5.55012 
     0.0997679      5.50075 
     0.0997765      5.45281 
     0.0997904      5.42392 
     0.0998584      5.37265 
      0.100399      5.10445 
      0.101109      4.79032 
      0.101643      4.57291 
      0.102485      4.26107 
      0.103361      3.97049 
      0.103782      3.84189 
      0.103792      3.84672 
        0.1038      3.86962 
      0.103805      3.91356 
      0.103809      3.96863 
      0.103813      4.03794 
      0.103817      4.15772 
      0.103824      4.37692 
      0.103829      4.54127 
      0.103833      4.62995 
      0.103835      4.67236 
      0.103838         4.69 
      0.103841      4.67545 
      0.103844       4.6359 
      0.103846      4.56773 
      0.103851      4.42123 
      0.103858      4.19772 
      0.103862      4.07461 
      0.103867      3.98753 
      0.103871      3.92272 
      0.103876      3.88022 
      0.103882      3.85317 
      0.103893      3.83318 
       0.10393      3.80956 
      0.104248      3.71045 
      0.104892      3.53626 
      0.105663      3.34618 
      0.106484      3.16121 
      0.107329      2.99137 
      0.108174      2.83785 
      0.109019      2.70405 
      0.109583      2.62444 
      0.110146      2.55345 
       0.11071      2.49053 
      0.111414      2.42825 
      0.111978       2.3919 
      0.112541      2.37022 
      0.112902      2.36499 
      0.113478      2.37609 
      0.113865      2.39925 
      0.114203      2.43149 
      0.114485       2.4697 
      0.114711      2.50867 
      0.114936      2.55636 
      0.115161      2.61411 
      0.115443      2.70303 
      0.115668      2.78993 
      0.115894      2.89362 
      0.116119      3.01724 
      0.116288      3.12484 
      0.116457      3.24876 
      0.116626      3.38919 
      0.116795      3.55133 
      0.116964      3.73559 
      0.117077      3.87392 
       0.11719      4.02576 
      0.117303      4.19255 
      0.117415      4.37592 
      0.117528      4.57767 
      0.117641      4.79981 
      0.117753      5.04452 
      0.117866      5.31421 
      0.117979      5.61145 
      0.118091      5.93898 
      0.118204      6.29963 
      0.118317       6.6962 
      0.118429      7.13134 
      0.118542      7.60728 
      0.118655      8.12551 
      0.118768       8.6863 
       0.11888      9.28808 
      0.118993      9.92716 
      0.119416      12.4629 
      0.119528      13.0894 
      0.119585      13.3837 
      0.119725      14.0036 
       0.11981       14.284 
      0.119895      14.4798 
      0.119976      14.5846 
       0.12003      14.6064 
      0.120118      14.5489 
      0.120204      14.3972 
      0.120289      14.1553 
      0.120373      13.8343 
      0.120458       13.437 
      0.120542      12.9941 
      0.120655      12.3347 
      0.121078      9.67029 
       0.12119      8.99848 
      0.121303      8.36447 
       0.12136      8.06002 
      0.121472      7.49019 
      0.121585      6.96457 
      0.121698      6.48219 
       0.12181      6.04104 
      0.121923      5.63854 
      0.122036      5.27178 
      0.122148      4.93778 
      0.122261      4.63363 
      0.122374      4.35653 
      0.122486      4.10389 
      0.122599       3.8733 
      0.122712      3.66259 
      0.122825       3.4697 
      0.122962      3.25623 
      0.123084      3.08622 
      0.123161      2.98468 
      0.123313      2.80146 
      0.123465      2.63719 
      0.123618       2.4895 
       0.12377      2.35638 
      0.123922      2.23609 
      0.124075      2.12714 
      0.124227       2.0283 
      0.124414      1.91913 
      0.124601      1.82168 
      0.124788      1.73454 
      0.124975      1.65649 
      0.125162      1.58649 
      0.125349      1.52367 
      0.125536      1.46728 
      0.125723      1.41671 
       0.12591      1.37141 
      0.126097      1.33093 
      0.126378      1.27876 
      0.126658      1.23476 
      0.126939      1.19946 
      0.127219      1.17092 
      0.127499      1.14981 
       0.12778      1.13462 
       0.12806      1.12612 
      0.128341      1.12308 
      0.128621      1.12635 
      0.128902      1.13491 
      0.129182      1.14968 
      0.129463      1.16976 
      0.129743      1.19615 
      0.130024      1.22802 
      0.130304      1.26649 
      0.130585      1.31073 
      0.130865      1.36199 
      0.131146      1.41942 
      0.131426      1.48439 
      0.131707      1.55603 
      0.131987      1.63583 
      0.132268      1.72285 
      0.132548      1.81872 
      0.132829      1.92242 
      0.133109      2.03569 
      0.133389       2.1594 
      0.133576      2.24426 
       0.13395      2.43075 
      0.134324      2.63536 
      0.134698      2.85876 
      0.135072      3.10153 
      0.135446      3.36412 
       0.13582      3.64677 
      0.136194       3.9495 
      0.136568      4.27207 
      0.136942      4.61387 
      0.137316      4.97395 
       0.13769      5.35097 
      0.138158      5.84317 
      0.138812      6.56479 
      0.140495         8.46 
      0.141243      9.25309 
      0.141804       9.7956 
      0.142365      10.2878 
         0.143      10.7638 
      0.143487      11.0649 
      0.144047      11.3403 
      0.144608      11.5501 
       0.14545      11.7516 
       0.14575      11.8477 
      0.145848      11.9225 
      0.145912      12.0119 
      0.145968      12.1559 
      0.146006      12.3185 
      0.146031      12.4835 
      0.146051      12.6705 
      0.146066      12.8593 
      0.146081      13.1065 
      0.146096      13.4354 
      0.146108      13.7762 
      0.146117      14.0874 
      0.146126      14.4593 
      0.146135      14.9006 
      0.146146       15.561 
      0.146152       16.014 
      0.146166      17.0134 
      0.146179       18.022 
      0.146186      18.4628 
      0.146193      18.8179 
        0.1462      19.0636 
      0.146205      19.1519 
      0.146207      19.1631 
      0.146213      19.1103 
      0.146219      18.9582 
      0.146226      18.6201 
      0.146234      18.1631 
      0.146263      16.0491 
      0.146272      15.4382 
      0.146282      14.9097 
      0.146288      14.6031 
      0.146299       14.131 
      0.146311      13.7534 
      0.146322      13.4514 
      0.146334      13.2086 
      0.146351      12.9275 
      0.146368      12.7182 
      0.146394       12.493 
      0.146418      12.3455 
      0.146465      12.1606 
      0.146527      12.0203 
      0.146634       11.896 
      0.146843      11.7889 
      0.148447      11.3827 
      0.150033      10.8756 
      0.151841      10.2853 
      0.152698      10.0581 
      0.153384      9.92935 
      0.154001      9.87939 
       0.15407      9.87858 
      0.154481       9.9037 
      0.154893      9.98717 
      0.155235      10.1183 
       0.15551      10.2743 
      0.155784      10.4885 
      0.156058      10.7753 
      0.156264      11.0465 
       0.15647      11.3808 
      0.156675      11.7786 
      0.156881      12.2584 
      0.157087      12.8165 
      0.157293      13.4662 
      0.157498      14.1908 
      0.158081      16.4245 
      0.158218      16.8874 
      0.158355      17.2771 
      0.158493      17.5685 
       0.15863      17.7432 
      0.158746      17.7933 
      0.158865      17.7433 
      0.158973      17.6192 
      0.159093      17.3962 
      0.159247      16.9994 
      0.159453      16.3295 
      0.160104       13.894 
      0.160378      12.9542 
      0.160584       12.323 
       0.16079       11.751 
      0.160995      11.2431 
      0.161201      10.7868 
      0.161475      10.2563 
       0.16175      9.79966 
      0.162024      9.40431 
      0.162367      8.98118 
       0.16271      8.61927 
      0.162984      8.36681 
      0.163395      8.03842 
      0.163807      7.75207 
      0.164355      7.42797 
      0.164904      7.15155 
      0.165624      6.84313 
      0.166344      6.57722 
      0.167218      6.29934 
      0.168276      6.00986 
       0.16953      5.71395 
      0.170787      5.45634 
      0.172044      5.22389 
      0.173787      4.93885 
      0.175396      4.70503 
      0.177274      4.45652 
      0.179419      4.20219 
      0.181565      3.97329 
      0.183978      3.74367 
      0.186124      3.56559 
      0.188001      3.43465 
       0.18961      3.34843 
      0.190683      3.30937 
      0.191756       3.2904 
      0.192024       3.2895 
      0.192828      3.29824 
      0.193365      3.31496 
      0.193901      3.34208 
      0.194438      3.38129 
      0.194974      3.43455 
       0.19551      3.50406 
      0.196047      3.59233 
      0.196583       3.7021 
      0.197119       3.8363 
      0.197656      3.99796 
      0.198192      4.18994 
      0.198729       4.4147 
      0.199265      4.67383 
      0.199801      4.96742 
      0.200304      5.27357 
      0.201008      5.74051 
      0.202617      6.87863 
      0.203227      7.27329 
      0.203596      7.47428 
      0.203699      7.50635 
      0.203712      7.54195 
      0.203719      7.60006 
      0.203726      7.70483 
      0.203735      7.88145 
       0.20375      8.28166 
      0.203755      8.38558 
       0.20376      8.43321 
      0.203763      8.43845 
      0.203768      8.41115 
      0.203775      8.30068 
      0.203792      7.95568 
        0.2038      7.84079 
      0.203809      7.75435 
      0.203823      7.70092 
      0.203851      7.67907 
      0.203972      7.70957 
      0.204491      7.91751 
      0.204977      8.06697 
      0.205449      8.16347 
      0.205984      8.21163 
      0.206177      8.21536 
      0.206657      8.19196 
       0.20704      8.14597 
      0.207587      8.04521 
      0.208407      7.83444 
      0.209718      7.42337 
      0.211834      6.72127 
      0.213156      6.31911 
      0.214504      5.95065 
      0.215804      5.63655 
      0.217192      5.34204 
      0.218602      5.08016 
      0.220208      4.81711 
      0.220229      4.82491 
       0.22024      4.84827 
      0.220249      4.89552 
      0.220257      4.97354 
      0.220265      5.09285 
      0.220283      5.45371 
       0.22029      5.53859 
      0.220295      5.57032 
      0.220296      5.57104 
        0.2203      5.56027 
      0.220305      5.52451 
      0.220311      5.43417 
      0.220327      5.13738 
      0.220335      5.02357 
      0.220344      4.94156 
      0.220354      4.88449 
      0.220368       4.8504 
      0.220391      4.82902 
      0.220472      4.80119 
      0.220984       4.7228 
      0.221787      4.63142 
      0.222354      4.59424 
      0.222472      4.59248 
      0.222771      4.60637 
      0.222931      4.63205 
      0.223087      4.67921 
      0.223205      4.73925 
      0.223318      4.82913 
      0.223394      4.91638 
      0.223469      5.03646 
      0.223526        5.157 
      0.223583      5.31394 
       0.22362      5.44517 
      0.223658      5.60358 
      0.223696      5.79553 
      0.223734      6.02866 
      0.223762      6.23567 
       0.22379      6.47438 
      0.223819      6.74806 
      0.223847      7.05862 
      0.223875      7.40535 
      0.223923      8.04574 
      0.223972      8.71793 
      0.223996      9.01229 
      0.224021      9.24684 
      0.224037      9.35781 
      0.224053      9.42588 
      0.224069      9.44775 
      0.224084      9.42737 
      0.224106      9.32666 
      0.224128      9.15063 
       0.22415      8.91448 
      0.224187      8.43832 
      0.224244      7.65516 
      0.224282      7.17299 
       0.22431      6.84977 
      0.224338      6.56215 
      0.224367      6.30898 
      0.224395      6.08753 
      0.224433      5.83565 
      0.224471      5.62578 
      0.224509      5.45036 
      0.224546      5.30301 
      0.224603       5.1234 
       0.22466       4.9817 
      0.224716      4.86815 
      0.224792      4.74875 
      0.224868      4.65573 
      0.224983       4.5481 
      0.225104      4.46536 
      0.225254       4.3885 
      0.225425      4.32285 
      0.225708      4.24338 
      0.226134      4.15879 
      0.226878      4.05182 
      0.228071      3.91895 
       0.22996      3.74327 
      0.232559      3.53253 
      0.235905      3.29156 
      0.240151      3.01347 
      0.250154      2.39111 
      0.253595      2.17214 
      0.254395       2.1323 
      0.254875      2.12017 
      0.254955       2.1199 
      0.255275      2.12717 
      0.255475      2.14176 
      0.255643       2.1638 
      0.255799        2.196 
      0.255931      2.23613 
      0.256051      2.28677 
      0.256131      2.33108 
      0.256211      2.38626 
      0.256292      2.45531 
      0.256352      2.51855 
      0.256412      2.59398 
      0.256472      2.68432 
      0.256532      2.79299 
      0.256592      2.92431 
      0.256632      3.02704 
      0.256672      3.14413 
      0.256712      3.27778 
      0.256752      3.43051 
      0.256792      3.60513 
      0.256832      3.80475 
      0.256872      4.03264 
      0.256912      4.29205 
      0.256932      4.43452 
      0.256972      4.74642 
      0.257012      5.09521 
      0.257052      5.47992 
      0.257092      5.89615 
      0.257195      7.03081 
      0.257237      7.46092 
      0.257268      7.74195 
        0.2573      7.97035 
      0.257331      8.13451 
      0.257352      8.20398 
      0.257373      8.23955 
      0.257384      8.24448 
      0.257413      8.21399 
      0.257442      8.12218 
      0.257472      7.97561 
      0.257501      7.78439 
       0.25754      7.47953 
      0.257603      6.91944 
      0.257687      6.15715 
      0.257728      5.80933 
      0.257768      5.49378 
      0.257808      5.20387 
      0.257848      4.93978 
      0.257888      4.70055 
      0.257928      4.48453 
      0.257968      4.28981 
      0.258008      4.11434 
      0.258068      3.88293 
      0.258128      3.68427 
      0.258188      3.51301 
      0.258248      3.36465 
      0.258308      3.23544 
      0.258348       3.1584 
      0.258428      3.02269 
      0.258508      2.90736 
      0.258588      2.80845 
      0.258668      2.72306 
      0.258764       2.6348 
       0.25886       2.5588 
      0.258964      2.48772 
      0.259068      2.42647 
      0.259236      2.34294 
      0.259436      2.26264 
      0.259676      2.18622 
      0.259917      2.12682 
      0.260077      2.09657 
      0.260236      2.07736 
      0.260305      2.07489 
      0.260385      2.08064 
      0.260435      2.09273 
      0.260486      2.11685 
      0.260525      2.14944 
      0.260554      2.18767 
      0.260575      2.22776 
      0.260593      2.27185 
      0.260611       2.3303 
      0.260626      2.39756 
      0.260636      2.45393 
      0.260646      2.52236 
      0.260656      2.60612 
      0.260664      2.68153 
      0.260672      2.77015 
      0.260679      2.87467 
      0.260687      2.99807 
      0.260695      3.14367 
      0.260702      3.31478 
       0.26071      3.51418 
      0.260718      3.74329 
      0.260725       4.0011 
      0.260733      4.28279 
      0.260748       4.8596 
      0.260755      5.12914 
       0.26076      5.28812 
      0.260765      5.42315 
       0.26077      5.52844 
      0.260775      5.59717 
       0.26078       5.6303 
      0.260782      5.63431 
      0.260787      5.61401 
      0.260792      5.55505 
      0.260795      5.49559 
      0.260801      5.36552 
      0.260806      5.20218 
      0.260814      4.91266 
      0.260834      4.17057 
      0.260842      3.88114 
      0.260849       3.6323 
      0.260857      3.41282 
      0.260865      3.22265 
      0.260872      3.05968 
       0.26088       2.9209 
      0.260887       2.8029 
      0.260895      2.70254 
        0.2609        2.644 
       0.26091      2.54361 
      0.260921      2.46143 
      0.260931       2.3935 
      0.260941      2.33682 
      0.260956      2.26798 
      0.260975      2.20384 
      0.260995      2.15069 
      0.261015      2.10952 
      0.261046      2.06154 
      0.261077      2.02636 
      0.261124      1.98851 
      0.261175      1.95877 
      0.261256      1.92534 
      0.261312      1.90809 
      0.261483      1.86922 
      0.261738      1.82757 
       0.26221      1.76729 
      0.263026      1.68038 
      0.264062      1.58381 
       0.26518       1.4904 
      0.266139      1.41919 
      0.266858      1.37438 
      0.267257      1.35614 
      0.267553      1.35026 
      0.267736      1.35439 
      0.267856      1.36421 
      0.267936      1.37652 
      0.268016      1.39699 
      0.268071      1.41902 
      0.268118       1.4454 
      0.268149      1.46881 
       0.26818      1.49877 
      0.268213      1.53941 
      0.268234       1.5738 
      0.268256      1.61604 
      0.268275      1.66105 
      0.268291      1.70707 
      0.268307      1.76201 
      0.268323      1.82816 
      0.268335       1.8869 
      0.268347      1.95521 
      0.268359      2.03507 
      0.268371       2.1289 
      0.268383      2.23965 
      0.268391       2.3246 
      0.268399      2.41983 
      0.268407      2.52662 
      0.268415      2.64636 
      0.268423       2.7804 
      0.268431      2.93004 
      0.268439      3.09629 
      0.268447      3.27971 
      0.268455      3.48004 
      0.268465      3.78039 
      0.268493      4.60071 
      0.268504       4.8773 
      0.268511      5.03302 
      0.268517      5.14321 
      0.268522      5.21499 
      0.268527      5.26409 
      0.268533      5.28901 
      0.268535      5.29213 
       0.26854      5.27957 
      0.268546      5.24233 
      0.268551      5.18158 
      0.268556      5.09914 
      0.268563      4.95815 
       0.26857      4.78919 
       0.26858      4.49981 
      0.268605      3.77819 
      0.268616      3.48202 
      0.268623      3.28973 
      0.268631      3.11276 
      0.268639      2.95139 
      0.268646      2.80522 
      0.268654      2.67342 
      0.268661      2.55494 
      0.268669       2.4486 
      0.268677      2.34923 
      0.268685      2.25694 
      0.268694      2.17481 
      0.268706      2.06799 
      0.268718      1.97765 
      0.268731      1.90084 
      0.268743      1.83515 
      0.268756      1.77864 
      0.268772      1.71493 
      0.268789      1.66188 
      0.268812      1.60243 
       0.26883      1.56281 
      0.268855      1.51952 
       0.26888      1.48455 
      0.268905      1.45588 
      0.268938      1.42507 
      0.268988      1.39016 
      0.269037      1.36447 
      0.269107      1.33845 
      0.269177       1.3198 
       0.26927      1.30202 
      0.269409      1.28437 
      0.269586      1.27044 
      0.269798      1.26058 
      0.270117      1.25389 
      0.270295      1.25301 
      0.270507      1.25442 
      0.270932      1.26446 
      0.271216      1.27653 
        0.2715      1.29323 
      0.271783      1.31488 
      0.272067      1.34191 
       0.27235      1.37478 
      0.272634      1.41401 
      0.272917      1.46013 
      0.273201       1.5137 
      0.273484      1.57533 
      0.273768       1.6456 
      0.274051      1.72512 
      0.274335      1.81447 
      0.274618       1.9142 
      0.274902       2.0248 
      0.275185      2.14669 
      0.275469       2.2802 
      0.275752      2.42552 
      0.276036      2.58267 
      0.276319      2.75153 
      0.276674      2.97841 
      0.277028      3.22155 
      0.277454      3.53282 
      0.278021      3.97083 
      0.279296      4.98302 
      0.279864      5.40423 
      0.280345      5.73075 
      0.280856      6.03325 
      0.281281      6.25147 
      0.281706      6.43156 
      0.282132      6.57911 
      0.282557      6.68957 
      0.282982      6.77031 
      0.283549       6.8314 
      0.284081      6.84872 
      0.284825      6.81946 
      0.285676      6.72907 
       0.28681      6.55443 
      0.289645      6.02004 
       0.29163       5.6601 
      0.293331      5.38585 
      0.295032       5.1457 
      0.296733      4.93815 
      0.298434      4.76096 
      0.300136      4.61253 
      0.301812      4.49442 
      0.303304      4.41537 
      0.304772      4.36432 
      0.305995      4.34888 
      0.307056      4.36216 
      0.308035      4.40311 
       0.30885      4.46454 
      0.309503      4.53697 
      0.310155      4.63406 
      0.310808      4.75952 
       0.31146      4.91549 
      0.312113      5.09992 
      0.313499      5.52217 
      0.313989         5.64 
      0.314315       5.6952 
      0.314641      5.72645 
      0.314849      5.73259 
      0.315172      5.71859 
      0.315457      5.68465 
      0.315783      5.62116 
      0.316273      5.48563 
      0.316925      5.25649 
      0.318312       4.7341 
      0.318964      4.51571 
      0.319617      4.32439 
      0.320269      4.15945 
      0.320922      4.01798 
      0.321738      3.86917 
      0.322553      3.74434 
      0.323532      3.62011 
      0.324674      3.50112 
      0.326142      3.37661 
      0.327774      3.26434 
      0.329731      3.15318 
      0.332178      3.03759 
      0.335237      2.91543 
      0.339315      2.77646 
      0.343376       2.6572 
      0.344327      2.63938 
      0.344565       2.6443 
      0.344705      2.65827 
      0.344792      2.68064 
      0.344837      2.70186 
      0.344873      2.72838 
        0.3449       2.7578 
      0.344926      2.79717 
      0.344949      2.85011 
      0.344967      2.90569 
      0.344985      2.98163 
      0.344996      3.04787 
      0.345008      3.13043 
       0.34502      3.23295 
      0.345032      3.35854 
      0.345044      3.50838 
      0.345055      3.67938 
      0.345078      4.03047 
      0.345087      4.14414 
      0.345096      4.23306 
      0.345104      4.28769 
      0.345112      4.30529 
       0.34512      4.28922 
      0.345127      4.24211 
      0.345137      4.14659 
      0.345146      4.02075 
      0.345172      3.63335 
      0.345184        3.461 
      0.345196      3.31777 
      0.345207      3.19866 
      0.345219      3.10177 
      0.345231       3.0237 
      0.345243      2.96089 
       0.34526      2.88846 
      0.345272      2.85108 
      0.345296      2.79457 
      0.345319      2.75472 
       0.34535      2.71816 
      0.345381      2.69275 
      0.345429      2.66622 
      0.345477      2.64879 
      0.345595      2.62419 
      0.345824      2.60257 
      0.346468      2.57618 
      0.349356      2.50396 
      0.352089      2.45079 
      0.354153      2.42533 
      0.355254      2.42074 
      0.356492      2.42802 
      0.357455      2.44755 
      0.358246      2.47773 
      0.358858      2.51462 
      0.359285      2.55201 
      0.359574      2.58814 
      0.359778      2.62611 
      0.359915      2.66666 
      0.359998      2.70444 
      0.360053      2.74059 
      0.360108      2.79182 
      0.360149      2.84557 
       0.36019        2.918 
      0.360232      3.01229 
      0.360291      3.16486 
      0.360313      3.20999 
      0.360336      3.23463 
      0.360347      3.23731 
      0.360364      3.22936 
      0.360383      3.20366 
      0.360409      3.14548 
       0.36045      3.04048 
       0.36049      2.94642 
      0.360532      2.87632 
      0.360573      2.82927 
      0.360614      2.79887 
      0.360669      2.77516 
      0.360746      2.76092 
      0.360807      2.75848 
       0.36098      2.77198 
      0.361257      2.82054 
      0.361535      2.88569 
      0.361835      2.97155 
      0.362089       3.0572 
      0.362366      3.16623 
      0.362644       3.2943 
      0.362875      3.41912 
      0.363059      3.53114 
      0.363244      3.65617 
      0.363429      3.79579 
      0.363614      3.95178 
      0.363799      4.12608 
      0.363983      4.32078 
      0.364076      4.42485 
      0.364261      4.65417 
      0.364446       4.9095 
       0.36463      5.19294 
      0.364815      5.50628 
         0.365      5.85067 
      0.365185       6.2263 
       0.36537      6.63188 
      0.365578      7.12032 
      0.366248       8.7928 
      0.366432      9.22757 
      0.366596      9.58121 
      0.366811      9.98714 
      0.367012      10.2796 
      0.367149      10.4276 
      0.367287      10.5334 
      0.367455      10.6006 
      0.367553      10.6076 
      0.367685      10.5777 
      0.367883      10.4709 
      0.368081      10.2795 
      0.368257      10.0511 
      0.368433      9.77858 
      0.368697      9.30773 
      0.369357      8.02175 
      0.369709      7.37428 
      0.369973       6.9342 
      0.370237      6.53468 
      0.370501      6.18109 
      0.370765      5.86668 
      0.371029      5.59315 
      0.371293      5.35293 
      0.371557      5.14669 
      0.371821      4.96801 
      0.372085      4.81773 
      0.372349      4.69098 
      0.372613      4.58929 
      0.372929      4.49612 
      0.373162      4.44941 
      0.373395      4.42127 
      0.373628      4.41287 
      0.373817      4.42145 
      0.374093      4.46279 
      0.374326      4.52638 
      0.374559      4.62007 
      0.374792      4.74714 
      0.375024      4.90954 
      0.375257      5.10538 
      0.375752      5.56564 
      0.375926      5.69244 
      0.376028      5.74484 
      0.376159      5.77257 
      0.376276      5.75509 
      0.376392      5.69319 
      0.376508       5.5862 
      0.376625      5.43732 
      0.376767      5.20899 
      0.376909      4.94554 
      0.377236       4.3006 
       0.37741      3.97892 
      0.377527      3.78185 
      0.377643      3.60069 
       0.37776      3.43569 
      0.377876      3.28632 
      0.377992       3.1516 
      0.378109       3.0303 
      0.378225      2.92111 
        0.3784      2.77682 
      0.378574      2.65332 
      0.378749       2.5458 
      0.378865      2.48195 
      0.379098      2.36916 
      0.379331      2.27219 
      0.379564      2.18714 
      0.379797      2.11105 
      0.380146      2.00898 
      0.380611       1.8867 
      0.381899      1.56995 
      0.382391      1.44003 
      0.382759      1.33478 
      0.383128      1.22117 
      0.383404      1.13018 
      0.383888     0.961533 
      0.384165     0.865343 
      0.384303     0.820233 
      0.384441     0.779423 
      0.384539     0.754492 
      0.384626     0.736281 
      0.384712     0.722361 
      0.384793     0.714833 
      0.384844     0.713237 
      0.384899      0.71491 
      0.384954     0.720356 
      0.385009     0.730121 
      0.385063     0.744811 
      0.385107     0.760307 
       0.38515      0.77961 
      0.385193     0.803077 
      0.385236     0.831083 
      0.385279      0.86402 
      0.385323     0.902287 
      0.385366     0.946291 
      0.385409     0.996435 
      0.385452      1.05312 
      0.385495      1.11672 
      0.385537      1.18572 
      0.385577      1.25782 
      0.385617      1.33659 
      0.385657      1.42215 
      0.385697      1.51447 
      0.385737      1.61366 
      0.385793      1.76532 
       0.38585      1.92904 
      0.385906      2.10479 
      0.385962        2.291 
      0.386048      2.59339 
       0.38625      3.32529 
      0.386336      3.62575 
      0.386423      3.90261 
      0.386509      4.14926 
      0.386595      4.36028 
      0.386682      4.53342 
      0.386768      4.66856 
      0.386855      4.76642 
      0.386935      4.83249 
      0.386987      4.86027 
      0.387114      4.89231 
      0.387137      4.89334 
      0.387252      4.87889 
      0.387367      4.84197 
      0.387575      4.73705 
      0.388335      4.24956 
      0.388611      4.08978 
      0.388888      3.94727 
      0.389246      3.78691 
      0.389576      3.66106 
      0.389998      3.52492 
       0.39042      3.41167 
      0.390948      3.29577 
      0.391476      3.20139 
      0.392109      3.11096 
      0.392742      3.04004 
      0.393586      2.96666 
      0.394431      2.91485 
      0.395275      2.87885 
       0.39633      2.85285 
      0.397174      2.84573 
      0.398019      2.84963 
      0.398863      2.86412 
      0.399707       2.8891 
      0.400551       2.9247 
      0.401396      2.97126 
       0.40224      3.02927 
      0.403084      3.09933 
      0.403928      3.18212 
      0.404773       3.2783 
      0.405617      3.38849 
      0.406461      3.51314 
      0.407305      3.65237 
       0.40815      3.80584 
      0.409416      4.06138 
      0.411315      4.47939 
      0.413004      4.85157 
      0.414059      5.06359 
      0.415115      5.24267 
      0.415832      5.34078 
      0.416381      5.40145 
      0.417436       5.4856 
      0.418808      5.56884 
      0.419125      5.61105 
      0.419336       5.6653 
      0.419494      5.73734 
        0.4196      5.81504 
      0.419679      5.90028 
      0.419758      6.02273 
      0.419811       6.1366 
      0.419864      6.28809 
        0.4199       6.4173 
      0.419932       6.5601 
      0.419964      6.73262 
      0.419997      6.94097 
      0.420029      7.19122 
       0.42006       7.4763 
      0.420091      7.80397 
      0.420174      8.76797 
      0.420203      9.03758 
      0.420225      9.18718 
       0.42024      9.24461 
      0.420255      9.26423 
      0.420275      9.23166 
      0.420294      9.13662 
      0.420319      8.94463 
      0.420341      8.71372 
      0.420421      7.78906 
      0.420455      7.43263 
      0.420489      7.12764 
      0.420516      6.92089 
      0.420556      6.66422 
      0.420597      6.46096 
      0.420643      6.28086 
      0.420689      6.14068 
      0.420735      6.03019 
      0.420808      5.89831 
      0.420889      5.79411 
      0.420997      5.69805 
      0.421116      5.62627 
      0.421235      5.57523 
      0.421452      5.51223 
      0.421841      5.44325 
      0.422621      5.36062 
      0.424311      5.23699 
      0.426391      5.12477 
      0.428522      5.04864 
       0.43107      4.99786 
      0.439389      4.91325 
      0.443418      4.83539 
      0.447707      4.71593 
      0.453426      4.51668 
      0.470323      3.86676 
      0.472663      3.79439 
       0.47375      3.77986 
      0.474459      3.79157 
      0.474884      3.81685 
      0.475168      3.84774 
      0.475451        3.897 
      0.475688      3.95999 
      0.475865      4.02718 
      0.476042      4.11929 
       0.47616      4.19971 
      0.476272      4.29423 
      0.476384      4.41196 
      0.476479      4.53557 
      0.476575      4.68521 
       0.47667      4.86612 
      0.476766      5.08351 
      0.476861      5.34124 
      0.476947      5.60778 
      0.477056      5.98073 
      0.477197       6.4749 
      0.477255      6.65362 
      0.477313      6.80084 
      0.477368      6.90009 
      0.477421      6.95002 
      0.477447      6.95737 
       0.47749      6.94354 
      0.477533      6.89902 
      0.477591      6.79654 
      0.477648      6.65322 
      0.477736      6.37987 
      0.477944      5.67149 
       0.47804      5.37907 
      0.478135      5.12288 
      0.478231      4.90323 
      0.478327       4.7169 
      0.478422      4.55941 
      0.478518      4.42618 
      0.478613      4.31309 
      0.478741      4.18756 
      0.478868      4.08483 
      0.479059      3.96253 
      0.479187      3.89687 
      0.479441      3.79234 
      0.479747      3.69898 
       0.48012      3.61375 
      0.480649      3.52335 
      0.481429      3.42159 
      0.483928      3.14572 
      0.484933      3.01427 
       0.48554      2.91937 
        0.4861      2.81678 
      0.486567      2.71694 
      0.486988      2.61329 
      0.487408      2.49526 
      0.488109       2.2775 
      0.488319      2.21852 
      0.488459      2.18717 
      0.488611      2.16583 
      0.488693      2.16221 
      0.488789      2.16897 
      0.488885      2.18873 
      0.488949      2.21075 
      0.489037      2.25646 
      0.489095      2.29794 
      0.489154       2.3494 
      0.489212      2.41186 
      0.489271      2.48626 
      0.489329      2.57343 
      0.489387      2.67396 
      0.489449      2.79437 
      0.489513      2.93676 
      0.489577      3.09449 
      0.489641      3.26649 
      0.489743      3.56409 
      0.489954      4.21342 
       0.49007      4.55389 
      0.490158      4.78179 
      0.490242      4.96984 
      0.490323      5.12386 
      0.490405       5.2487 
      0.490487      5.34247 
      0.490569      5.40903 
      0.490652       5.4484 
      0.490763      5.47393 
      0.490791      5.47496 
      0.490907      5.45949 
      0.491022      5.42568 
      0.491282      5.30142 
      0.491859       4.9775 
      0.492263       4.7835 
       0.49261      4.65102 
      0.492841      4.58278 
      0.493071      4.53441 
      0.493302      4.51402 
      0.493477      4.52727 
      0.493595       4.5579 
      0.493715      4.61483 
      0.493805      4.68034 
      0.493895      4.77054 
      0.493985      4.88936 
      0.494015      4.93586 
      0.494265      5.38288 
      0.494327      5.47105 
      0.494389      5.52697 
      0.494445      5.54328 
        0.4945       5.5266 
      0.494554      5.48127 
      0.494627      5.38811 
      0.494856      5.01247 
      0.494976      4.83611 
      0.495093      4.69303 
       0.49521      4.57632 
      0.495344      4.46936 
      0.495544      4.34644 
      0.495745      4.25427 
      0.496012      4.16152 
       0.49628       4.0906 
        0.4966      4.02321 
      0.497173      3.93176 
      0.497892      3.84628 
      0.498969      3.75012 
      0.500406      3.65362 
      0.502202      3.56109 
      0.504716      3.45941 
      0.508308      3.34561 
      0.512528      3.23775 
      0.514772      3.19791 
       0.51585      3.19168 
      0.516927      3.20368 
      0.517646      3.22871 
      0.518364      3.27485 
      0.518903       3.3288 
      0.519442      3.40478 
       0.51998      3.50812 
      0.520357      3.59948 
      0.520753      3.71546 
      0.521094      3.82681 
      0.521525      3.98835 
       0.52269      4.46803 
      0.523221      4.66387 
      0.523937      4.88446 
      0.524369      5.01946 
      0.524657       5.1274 
      0.524923       5.2483 
       0.52514      5.36629 
      0.525424      5.55291 
      0.525733      5.79025 
       0.52635      6.30634 
      0.526658      6.53045 
      0.526864       6.6518 
       0.52707      6.74476 
      0.527288      6.81035 
       0.52752      6.84113 
      0.527636       6.8476 
      0.527944      6.81719 
      0.528253      6.74525 
      0.528664      6.60238 
      0.530309      5.89735 
      0.530927      5.65819 
      0.531544      5.44507 
      0.532366       5.1991 
      0.533189      4.99079 
      0.534012      4.81402 
       0.53504      4.62615 
      0.536274      4.44065 
      0.537611      4.27603 
      0.538923       4.1423 
      0.540594      4.00199 
      0.542394      3.88021 
      0.544295      3.77786 
      0.545155      3.74743 
      0.545219       3.7472 
      0.545462      3.76032 
      0.545549      3.78016 
      0.545619      3.81552 
      0.545663      3.85848 
      0.545693      3.90469 
      0.545723      3.97537 
      0.545745      4.05322 
      0.545767      4.16094 
       0.54579      4.30393 
      0.545835      4.65839 
      0.545851      4.75299 
      0.545862       4.7997 
      0.545874       4.8177 
      0.545884      4.80793 
      0.545898       4.7601 
       0.54591       4.6911 
      0.545926       4.5742 
      0.545958      4.32565 
       0.54598       4.1824 
      0.546002      4.07504 
      0.546024      4.00041 
      0.546045      3.95123 
      0.546074       3.9128 
      0.546103      3.90161 
      0.546126      3.91606 
      0.546143      3.94563 
      0.546158      3.98809 
      0.546172      4.05172 
      0.546186      4.14076 
      0.546201       4.2558 
      0.546235      4.57311 
      0.546245       4.6453 
      0.546254      4.68913 
      0.546264      4.71368 
      0.546275      4.70165 
      0.546285      4.66048 
      0.546295      4.59602 
      0.546314      4.42825 
      0.546338      4.22306 
      0.546353      4.12297 
      0.546367      4.04364 
      0.546382       3.9826 
      0.546404      3.91385 
      0.546431      3.86198 
      0.546473      3.81264 
      0.546528      3.77554 
      0.546609      3.74548 
      0.546733      3.72046 
      0.547069      3.68888 
      0.547964         3.65 
      0.549862      3.60365 
      0.551588       3.5828 
      0.552451      3.57975 
      0.554349       3.5928 
      0.555729      3.62212 
       0.55711      3.67186 
       0.55849      3.74633 
      0.559526      3.82242 
      0.560561      3.91591 
      0.561597      4.03296 
      0.562632      4.17115 
      0.563667      4.33537 
      0.564703      4.51943 
      0.567291      5.02406 
      0.568327      5.20247 
      0.569017       5.2953 
      0.569673      5.35733 
      0.570398      5.39021 
      0.570656       5.3923 
       0.57126      5.37488 
      0.571951       5.3211 
      0.572813      5.20582 
      0.573504      5.08047 
      0.574367      4.89292 
      0.576092      4.46011 
      0.578508      3.83506 
      0.579889      3.50027 
      0.581097      3.23004 
      0.581959      3.05808 
      0.582477      2.96974 
       0.58293      2.90758 
      0.583298      2.87259 
      0.583574      2.85954 
      0.583665       2.8578 
      0.583941      2.86537 
      0.584125      2.88132 
      0.584309      2.90806 
      0.584493      2.94742 
      0.584677      3.00137 
      0.584844      3.06456 
      0.584993      3.13277 
      0.585142      3.21556 
      0.585366      3.36671 
      0.585504      3.47646 
      0.585706      3.66224 
      0.585832      3.79846 
      0.585935      3.92875 
      0.585996      4.02069 
      0.586036      4.09538 
      0.586075      4.18888 
      0.586105      4.28129 
      0.586124      4.36225 
       0.58614      4.44974 
      0.586154      4.53979 
      0.586167      4.65233 
      0.586181      4.79388 
      0.586192      4.94392 
      0.586202      5.09202 
      0.586217      5.35169 
      0.586249      6.01508 
      0.586261      6.21513 
      0.586269      6.33007 
      0.586276      6.38959 
      0.586283      6.42723 
      0.586286      6.43517 
      0.586294       6.4246 
      0.586301      6.38239 
      0.586308      6.31162 
      0.586315      6.21694 
      0.586327      6.02763 
      0.586356      5.50455 
      0.586367      5.33009 
      0.586378      5.18777 
      0.586388      5.06944 
      0.586399      4.97342 
      0.586411       4.8868 
      0.586425      4.81367 
      0.586445      4.74008 
      0.586468      4.69314 
      0.586493      4.66492 
      0.586528      4.65233 
       0.58658      4.66223 
      0.586667      4.71202 
       0.58704      4.98483 
      0.587238      5.09934 
      0.587397      5.16147 
      0.587556      5.20439 
      0.587768      5.22563 
      0.587979      5.21275 
      0.588191      5.17224 
      0.588509      5.07332 
      0.588826      4.94804 
      0.590097      4.38928 
      0.590732      4.14016 
      0.591367       3.9209 
      0.591949       3.7433 
      0.592584      3.57224 
      0.592618      3.56713 
      0.592641      3.57482 
      0.592659      3.60223 
      0.592676      3.65265 
      0.592704      3.76251 
      0.592716      3.78969 
      0.592721      3.79217 
      0.592733      3.77742 
      0.592745      3.73324 
       0.59277      3.62006 
      0.592787       3.5644 
      0.592805      3.53127 
      0.592831      3.51209 
      0.593363      3.38426 
      0.594233      3.20218 
      0.594926      3.07759 
      0.595452      3.00054 
      0.595824      2.96236 
      0.596056      2.95006 
      0.596165      2.94862 
      0.596373      2.95733 
      0.596567      2.98355 
      0.596691      3.01328 
      0.596815      3.05661 
      0.596938      3.11758 
      0.597031      3.17802 
      0.597124      3.25409 
      0.597217      3.34912 
       0.59731      3.46693 
      0.597403      3.61176 
      0.597465      3.72547 
      0.597527      3.85429 
      0.597589      3.99915 
      0.597651      4.16053 
      0.597747      4.44489 
      0.597813       4.6582 
      0.598038      5.42875 
        0.5981      5.62274 
      0.598161       5.7913 
      0.598217      5.91556 
      0.598268      5.99979 
      0.598318      6.05621 
      0.598368      6.08422 
      0.598394      6.08731 
      0.598463      6.06116 
      0.598533       5.9922 
      0.598603      5.88732 
      0.598672      5.75631 
      0.598858       5.3484 
      0.599044      4.93703 
      0.599168      4.68903 
      0.599291      4.46772 
      0.599415      4.27275 
      0.599539      4.10184 
      0.599663      3.95206 
      0.599787      3.82043 
      0.599973      3.65119 
      0.600158       3.5091 
      0.600344      3.38875 
       0.60053      3.28427 
      0.600778      3.16528 
      0.601025      3.06392 
      0.601288      2.97091 
      0.601675      2.85435 
      0.602094      2.74874 
      0.602342      2.69546 
      0.602545      2.66134 
      0.602632      2.65486 
      0.602697      2.66176 
      0.602739      2.68189 
      0.602762      2.70808 
       0.60278      2.74331 
      0.602793      2.78627 
      0.602805      2.84209 
      0.602812      2.88858 
      0.602819      2.94709 
      0.602826      3.01994 
      0.602833      3.11102 
       0.60284      3.22079 
      0.602847      3.34972 
      0.602854      3.49645 
      0.602864       3.7131 
      0.602878      4.04837 
      0.602885      4.20238 
      0.602893      4.33357 
      0.602898      4.39757 
      0.602903      4.43926 
      0.602908      4.45611 
       0.60291      4.45715 
      0.602915      4.44358 
       0.60292      4.40774 
      0.602925      4.35105 
      0.602932      4.23215 
      0.602939      4.09588 
      0.602951      3.79722 
      0.602965      3.48285 
      0.602974      3.29394 
       0.60298       3.1844 
      0.602986      3.08887 
      0.602992      3.00701 
      0.603001      2.90769 
       0.60301      2.83227 
      0.603018      2.78568 
      0.603031      2.72585 
      0.603043      2.68496 
       0.60306      2.64921 
      0.603084      2.61521 
      0.603116      2.58754 
      0.603174      2.55676 
      0.603294      2.52037 
       0.60355       2.4691 
      0.604061      2.38727 
      0.604744      2.29332 
      0.605563      2.19713 
      0.606381      2.11891 
      0.606927      2.07791 
      0.607473      2.04748 
      0.608155      2.02726 
      0.608428      2.02514 
      0.608974      2.03486 
      0.609384      2.05389 
      0.609793      2.08567 
      0.610202      2.12958 
      0.610612      2.18833 
      0.610919      2.24204 
       0.61126      2.31096 
      0.611567      2.38129 
      0.611977      2.48777 
      0.612386      2.60852 
      0.613068      2.83375 
      0.614024       3.1813 
      0.614979      3.52892 
      0.615525      3.71199 
      0.616071      3.87654 
      0.616616      4.01889 
      0.617162      4.13735 
      0.617708      4.23188 
      0.618391      4.31859 
      0.618936      4.36547 
      0.619482      4.39504 
      0.620301      4.41179 
      0.620574        4.413 
      0.621666      4.39174 
      0.623303      4.31779 
      0.629035      3.97566 
      0.631491      3.85516 
      0.633433      3.78345 
      0.635113      3.74402 
      0.636352      3.73331 
      0.637592      3.74511 
      0.638625      3.77729 
      0.639452      3.82342 
      0.640278       3.8928 
      0.640898      3.96462 
      0.641518      4.05453 
      0.642138       4.1693 
      0.642757       4.3081 
      0.643377      4.47767 
      0.643997      4.67384 
      0.644669      4.91808 
      0.646373      5.57975 
      0.646993      5.78459 
      0.647437       5.9036 
      0.648026      6.01947 
      0.648646      6.09461 
      0.649937      6.20682 
      0.650338      6.27357 
      0.650766      6.38241 
      0.651143      6.51999 
      0.651717      6.75796 
      0.651968      6.83111 
      0.652165      6.85149 
      0.652335      6.83355 
      0.652505      6.78285 
       0.65272      6.67104 
      0.652908      6.53822 
      0.653688      5.87803 
      0.653957      5.68471 
      0.654127      5.59433 
      0.654217      5.56701 
      0.654262       5.5632 
      0.654334      5.58267 
      0.654378      5.62168 
      0.654409      5.67265 
      0.654441      5.75504 
      0.654469       5.8699 
       0.65449      5.99489 
      0.654512      6.15812 
      0.654537      6.39506 
      0.654564      6.66414 
      0.654583       6.8093 
      0.654596      6.87845 
       0.65461      6.90205 
      0.654623      6.87915 
      0.654636       6.8125 
      0.654655      6.66816 
        0.6547      6.22706 
      0.654716      6.09526 
      0.654732      5.98841 
      0.654757       5.8743 
      0.654776      5.81887 
      0.654797        5.786 
      0.654808      5.78039 
      0.654832      5.78993 
      0.654855      5.82719 
      0.654878      5.89262 
      0.654901      5.98841 
      0.654922      6.10548 
      0.654943      6.25243 
      0.654972      6.49356 
      0.655023      6.99769 
      0.655041      7.14989 
      0.655058      7.26332 
      0.655072      7.31338 
      0.655085      7.32824 
      0.655098      7.30856 
       0.65511      7.25722 
      0.655129        7.128 
      0.655149      6.93086 
      0.655207      6.29365 
      0.655236       6.0166 
      0.655263      5.80092 
      0.655289      5.63621 
      0.655315      5.50266 
      0.655353      5.34738 
      0.655392      5.23117 
      0.655431       5.1418 
      0.655488       5.0408 
      0.655545      4.96689 
      0.655657      4.86199 
      0.655806      4.76554 
      0.655999      4.67451 
      0.656217      4.59369 
      0.656564      4.48942 
      0.657143       4.3511 
      0.657914      4.20532 
      0.658814      4.06958 
      0.659713      3.95804 
      0.660999      3.82808 
      0.662541      3.70224 
      0.664341      3.58392 
      0.666654      3.46247 
      0.669225      3.35404 
      0.672567      3.24087 
      0.676487      3.13404 
      0.680793      3.03879 
      0.685742      2.95095 
      0.690297      2.88946 
      0.693675      2.86145 
      0.695315      2.85696 
        0.6975      2.86712 
      0.698672      2.88486 
      0.698735       2.8915 
      0.698783      2.90888 
       0.69881      2.93797 
      0.698829      2.97991 
      0.698846      3.04015 
      0.698862      3.12646 
      0.698895      3.33794 
      0.698905      3.38984 
      0.698915      3.42364 
      0.698926      3.43494 
      0.698937      3.41982 
      0.698947       3.3823 
      0.698964      3.29651 
       0.69898      3.20161 
      0.698996      3.11879 
      0.699013      3.05677 
      0.699032      3.00955 
      0.699048      2.98333 
      0.699079      2.95597 
      0.699134      2.93552 
      0.699251      2.92228 
        0.6994      2.91948 
      0.699988      2.93334 
      0.700895      2.97629 
      0.701674      3.03167 
      0.702322      3.09616 
      0.702841      3.16521 
      0.703295      3.24419 
      0.703567      3.30346 
      0.703904      3.39424 
      0.704138      3.47272 
      0.704345      3.55711 
       0.70454      3.65369 
      0.704734      3.77308 
      0.704864      3.86957 
      0.704994      3.98372 
      0.705123      4.12033 
      0.705253      4.28561 
       0.70535      4.43312 
      0.705448      4.60518 
      0.705545      4.80614 
      0.705642      5.04021 
      0.705739      5.31035 
       0.70584      5.62683 
      0.706077      6.44799 
      0.706141       6.6505 
      0.706206      6.81871 
      0.706255      6.91246 
      0.706303      6.97147 
      0.706353      6.99215 
      0.706408      6.96679 
      0.706462      6.89228 
      0.706518      6.77121 
      0.706576      6.60703 
      0.706653      6.34858 
      0.706844      5.65495 
      0.706919       5.4054 
      0.706994      5.18031 
      0.707069      4.98129 
      0.707144      4.80761 
       0.70722      4.65728 
      0.707295      4.52775 
      0.707407      4.36672 
      0.707505      4.25373 
      0.707603      4.16042 
      0.707739      4.05596 
      0.707882      3.97146 
      0.708106      3.87349 
      0.708346      3.79907 
      0.708609      3.73839 
      0.709209      3.63548 
      0.710323      3.45955 
      0.711061      3.32314 
      0.711662      3.19559 
      0.712112      3.08655 
      0.712563      2.96077 
      0.712863      2.86375 
      0.713164      2.75223 
      0.713464      2.62315 
      0.713952      2.38813 
      0.714082      2.33535 
      0.714176      2.30851 
      0.714263      2.29786 
      0.714331      2.30284 
      0.714398      2.32267 
      0.714448      2.34909 
      0.714499      2.38646 
      0.714549      2.43617 
        0.7146      2.49874 
       0.71465      2.57307 
      0.714701      2.65904 
      0.714768      2.78874 
      0.714954      3.18468 
      0.715043      3.35899 
       0.71512      3.48767 
      0.715196      3.59319 
      0.715272       3.6748 
      0.715347      3.73418 
       0.71542      3.77439 
      0.715529      3.80864 
       0.71566      3.81994 
      0.715805       3.8085 
      0.716096      3.75042 
      0.716824       3.5787 
      0.717405      3.46873 
      0.718016      3.37854 
      0.718831      3.28586 
      0.719849      3.19734 
      0.721599      3.07892 
      0.722959      2.98626 
      0.723846      2.90635 
      0.724221      2.87603 
       0.72431      2.87439 
      0.724453      2.88483 
       0.72456      2.91222 
      0.724631      2.94626 
      0.724703      2.99856 
      0.724756      3.05302 
       0.72481      3.12264 
      0.724863      3.20805 
      0.724932       3.3388 
      0.725061      3.60059 
      0.725122      3.70441 
      0.725175       3.7705 
      0.725229      3.81075 
      0.725282       3.8272 
        0.7253      3.82806 
      0.725374      3.81246 
      0.725447      3.77628 
      0.725737        3.592 
       0.72588      3.51658 
      0.726094      3.42936 
      0.726308      3.36569 
      0.726611      3.30175 
      0.726923      3.25577 
      0.727374      3.21006 
       0.72802      3.16776 
      0.729073      3.12748 
      0.730578      3.09793 
      0.732613      3.08194 
      0.733934      3.07965 
      0.736905      3.09008 
      0.740866      3.12686 
      0.744695      3.18296 
      0.747732      3.24669 
      0.749844       3.3108 
      0.751165      3.36682 
      0.752221      3.42728 
      0.753277      3.50965 
       0.75407      3.59279 
      0.754862      3.70207 
       0.75539      3.79374 
      0.755918      3.90349 
      0.756446      4.03287 
      0.757239      4.26052 
      0.758097      4.51529 
      0.758493      4.61178 
      0.758889      4.68105 
      0.759196       4.7074 
      0.759351      4.71128 
      0.759642        4.699 
      0.760028      4.64902 
      0.760406      4.56871 
      0.761107      4.37321 
      0.762041      4.09945 
      0.762721      3.92784 
       0.76323      3.82014 
       0.76375       3.7283 
      0.764276      3.65327 
      0.764743      3.60209 
      0.765168      3.57346 
      0.765302       3.5706 
      0.765532      3.58014 
      0.765693      3.60865 
      0.765788      3.64353 
       0.76587      3.69455 
      0.765927      3.74828 
      0.765973      3.80983 
       0.76602      3.89468 
      0.766056      3.98345 
      0.766087      4.08088 
      0.766118      4.20333 
      0.766149      4.35592 
      0.766179      4.54195 
        0.7662      4.68373 
       0.76627      5.19864 
      0.766293      5.33679 
      0.766308      5.40381 
      0.766324       5.4452 
      0.766339      5.45799 
      0.766354      5.44285 
      0.766369      5.40044 
      0.766388        5.315 
      0.766413      5.15234 
      0.766482      4.64154 
      0.766508      4.47031 
      0.766533      4.32785 
      0.766565      4.17299 
      0.766597      4.04867 
      0.766629      3.94936 
      0.766671      3.84726 
      0.766698      3.79676 
      0.766751      3.71782 
      0.766816      3.64909 
       0.76688      3.60008 
      0.766974      3.55074 
      0.767125      3.50101 
      0.767352      3.45931 
      0.767731      3.42506 
      0.768235      3.40654 
      0.768538      3.40359 
      0.769211      3.41445 
      0.769749      3.44083 
      0.770287      3.48566 
      0.770825       3.5532 
      0.771229      3.62245 
      0.771632      3.70867 
      0.772036      3.81616 
       0.77244      3.94331 
      0.772877      4.10487 
      0.774121      4.61346 
      0.774538      4.75946 
      0.774928      4.86532 
      0.775332      4.93947 
      0.775736       4.9801 
      0.776307      4.99794 
       0.77735      4.98569 
      0.777821      4.99271 
      0.778359      5.02614 
      0.778845      5.08768 
      0.779228      5.16381 
      0.779539      5.24278 
      0.779906      5.36346 
      0.780089      5.43571 
      0.780455      5.60454 
      0.780822      5.80575 
      0.781234      6.06537 
      0.781966       6.5541 
      0.782424      6.82166 
       0.78279       6.9972 
       0.78327      7.18176 
       0.78399      7.39994 
      0.784658      7.56429 
      0.785327      7.69096 
      0.785917      7.75228 
      0.786246      7.76345 
      0.786758      7.74306 
      0.787437      7.65219 
      0.788164      7.49208 
      0.790831      6.74813 
      0.792043      6.45647 
      0.793195      6.22413 
      0.794467      6.00719 
      0.796164      5.76604 
      0.798346      5.50239 
      0.801498      5.17144 
      0.806346      4.71524 
      0.811438      4.24216 
      0.814104      3.96807 
      0.817014      3.65203 
      0.817741      3.58629 
      0.818407      3.54365 
      0.818968      3.53019 
      0.819329      3.53818 
      0.819639      3.56052 
      0.819923      3.60258 
      0.820051       3.6349 
       0.82018      3.68449 
      0.820277      3.74403 
      0.820337      3.79938 
      0.820393      3.87268 
      0.820433      3.94811 
      0.820473      4.04681 
      0.820499      4.13276 
      0.820525      4.24003 
      0.820551      4.37358 
      0.820577      4.53733 
      0.820603      4.73143 
      0.820661       5.2145 
      0.820683      5.36231 
      0.820699      5.44217 
      0.820715      5.48719 
      0.820725      5.49564 
      0.820741      5.47803 
      0.820757      5.42442 
      0.820777      5.31177 
      0.820798      5.16642 
      0.820853      4.74786 
       0.82088      4.57175 
      0.820906      4.42887 
      0.820933      4.31473 
      0.820959      4.22489 
      0.820999      4.12529 
      0.821039      4.05611 
      0.821079      4.00776 
      0.821137      3.96176 
      0.821196      3.93485 
      0.821307      3.91351 
      0.821345      3.91186 
       0.82152      3.92413 
      0.821727      3.96124 
      0.822165      4.06956 
      0.822897      4.26589 
      0.823577      4.42155 
      0.824087      4.51195 
      0.824683      4.58387 
      0.825363       4.6301 
      0.826043      4.64574 
      0.826214      4.64635 
      0.827234      4.62588 
      0.828935      4.54674 
      0.834038      4.26428 
       0.83744      4.10788 
      0.840162      4.01134 
      0.841841      3.97345 
      0.842782      3.96575 
      0.843712      3.97454 
      0.844433      3.99919 
      0.844905      4.02729 
      0.844953      4.01812 
         0.845       3.9776 
      0.845047      3.93819 
      0.845094       3.9308 
         0.848      4.28699 
         0.849      4.64175 
          0.85      5.27397 
        0.8505       5.6695 
         0.851      5.97783 
      0.851375      6.02377 
        0.8515       6.0269 
      0.851922      5.83115 
      0.852063      5.74785 
         0.853      5.07452 
         0.854      4.61651 
         0.855      4.42107 
         0.856      4.40091 
      0.856984      4.54167 
         0.859      5.17109 
      0.859375      5.15178 
        0.8595      5.13884 
          0.86      4.96987 
         0.861      4.54153 
         0.862      4.24981 
         0.863      4.11389 
         0.864      4.08007 
        0.8645      4.14857 
         0.865      4.27663 
      0.865094      4.25629 
      0.865984      3.97477 
      0.866125      3.96023 
         0.868      3.85517 
          0.87      3.85109 
         0.872      3.94629 
         0.874      4.16511 
         0.876      4.48376 
         0.877      4.56925 
      0.877937       4.5231 
       0.87825      4.47515 
         0.882      3.80352 
         0.885      3.51751 
          0.89      3.27864 
         0.895      3.11527 
           0.9      3.01665 
         0.905      2.89956 
         0.908      2.77142 
          0.91      2.64162 
         0.912       2.4588 
         0.914      2.21343 
         0.915      2.14074 
        0.9155      2.14951 
         0.916       2.2026 
        0.9165      2.30722 
         0.917      2.45762 
         0.918      2.82368 
         0.919      3.10228 
          0.92      3.17383 
         0.921      3.09123 
         0.922      2.95934 
         0.924      2.77244 
         0.925      2.76757 
         0.926      2.82274 
         0.927      2.96856 
         0.928       3.2173 
         0.929       3.6325 
          0.93      4.18425 
      0.930375      4.31812 
        0.9305      4.35486 
       0.93075      4.34799 
         0.931      4.32824 
      0.931375      4.17601 
        0.9315       4.1207 
         0.932      3.83827 
         0.933      3.34153 
         0.934      3.01323 
         0.936      2.58751 
         0.937      2.43153 
         0.938      2.35487 
         0.939      2.39811 
          0.94      2.53754 
         0.942      2.86863 
         0.944      3.11132 
         0.946      3.19681 
        0.9505      3.09018 
         0.955      2.96184 
         0.964      2.81065 
         0.966      2.81209 
         0.968      2.86941 
         0.969      2.98714 
      0.969375      3.08565 
        0.9695      3.12331 
      0.969875      3.30747 
          0.97      3.37372 
       0.97045       3.6895 
        0.9706      3.78954 
       0.97075      3.84494 
      0.970825      3.85601 
       0.97095      3.84153 
         0.971      3.82888 
       0.97115      3.75425 
        0.9713      3.65433 
        0.9715       3.5101 
        0.9718      3.33111 
         0.972      3.21809 
      0.972375       3.0948 
        0.9725      3.05796 
         0.973      2.97797 
         0.974      2.93036 
      0.975953      3.02498 
      0.976188      3.05528 
         0.979      3.47844 
          0.98       3.5437 
         0.981      3.44754 
         0.984      2.87646 
         0.986      2.65634 
          0.99      2.45231 
         0.995      2.32645 
             1      2.31878 
         1.005      2.47404 
          1.01      2.83378 
         1.016      3.38196 
         1.018      3.51829 
          1.02      3.57272 
         1.024      3.46968 
         1.025      3.48582 
         1.026      3.55841 
        1.0265       3.5331 
         1.028      3.17559 
         1.029      3.01143 
         1.032      2.75328 
         1.034      2.55663 
         1.036      2.41342 
       1.03797      2.45059 
       1.03816      2.47198 
         1.039      2.58989 
          1.04      2.81949 
         1.042      3.43442 
         1.043      3.66793 
         1.044      3.75493 
         1.045      3.70495 
         1.048      3.34256 
          1.05      3.19973 
          1.06      2.72805 
         1.075       2.0608 
          1.08      1.94045 
         1.082      1.98921 
         1.084       2.1686 
         1.086      2.47053 
          1.09      3.20288 
         1.092      3.46024 
         1.094         3.49 
       1.09812      3.15215 
           1.1       3.0247 
         1.102      2.94944 
         1.104      2.96575 
          1.11      3.24325 
         1.115      3.42514 
          1.12      3.48844 
          1.14      3.43659 
       1.14503      3.50708 
         1.147      3.59762 
         1.148      3.68327 
        1.1485      3.75733 
         1.149      3.87606 
       1.14937      4.03483 
        1.1495      4.09658 
       1.14975      4.29977 
          1.15      4.51283 
        1.1502      4.69524 
        1.1503      4.75553 
        1.1504      4.79413 
       1.15042      4.79571 
       1.15055      4.77095 
       1.15062      4.73583 
         1.151      4.44164 
       1.15138      4.23028 
        1.1515      4.16789 
       1.15175      4.11072 
         1.152      4.06353 
         1.153      4.04668 
       1.15412      4.12074 
         1.162      5.01769 
         1.164      5.17772 
         1.166      5.22507 
       1.16806      5.14328 
         1.172      4.74737 
         1.174      4.52255 
         1.176       4.3498 
         1.178      4.31231 
         1.179      4.36224 
       1.17988      4.36427 
          1.18      4.36138 
         1.181      4.20268 
         1.182      3.99218 
         1.184      3.70355 
         1.186      3.54249 
         1.191      3.32122 
         1.192      3.29316 
       1.19303      3.37091 
         1.195      3.62463 
         1.196      3.53563 
         1.197      3.36932 
         1.198       3.2537 
           1.2      3.14272 
          1.21      2.96565 
         1.225      2.98358 
          1.23      2.95437 
         1.235      3.05653 
         1.238      3.19869 
       1.23997      3.19177 
         1.244      2.91542 
         1.248      2.71499 
       1.24997      2.81861 
       1.25025       2.8601 
         1.251      2.98364 
         1.252      3.22483 
         1.253       3.5172 
       1.25375       3.6542 
         1.254      3.69378 
       1.25475      3.62762 
         1.255      3.60175 
         1.256      3.40484 
         1.257        3.276 
         1.258      3.24236 
         1.259      3.28886 
         1.262      3.63864 
         1.263      3.66104 
       1.26403      3.57137 
         1.266      3.26286 
         1.268      3.01859 
          1.27      2.88278 
         1.275      2.77654 
         1.278      2.76042 
          1.28      2.66701 
         1.283      2.44003 
         1.284      2.38647 
         1.285      2.39326 
         1.286      2.46654 
         1.287      2.58706 
         1.288      2.74688 
        1.2895      3.05522 
          1.29      3.15317 
        1.2905      3.13114 
         1.291      3.10171 
         1.292      2.93663 
         1.295      2.72943 
           1.3      2.58119 
          1.31      2.37031 
       1.31412      2.40258 
         1.316      2.45022 
          1.32      2.63938 
       1.32203       2.6255 
         1.325      2.44937 
          1.33      2.29072 
         1.335      2.26806 
       1.33997      2.37659 
         1.341      2.44513 
         1.342      2.54388 
        1.3435       2.9529 
       1.34388       3.0066 
         1.344       3.0194 
       1.34438      2.99644 
        1.3445      2.98359 
        1.3455      2.72509 
         1.346      2.59557 
         1.347      2.41418 
         1.348       2.2636 
         1.349      2.17839 
          1.35      2.16512 
         1.351      2.22651 
         1.352      2.34741 
         1.353      2.44464 
         1.355      2.73374 
         1.356      2.76847 
         1.357       2.6494 
         1.358      2.48514 
          1.36      2.26629 
         1.362      2.14204 
         1.364       2.0548 
         1.366      2.04417 
       1.36806      2.11676 
         1.369      2.17714 
         1.371      2.37912 
         1.374      2.74106 
         1.375      2.82836 
          1.38      3.00904 
         1.381      2.96376 
         1.387      3.06304 
          1.39      3.19695 
         1.395      3.53779 
         1.396      3.74332 
         1.397      3.80073 
       1.39794      3.78767 
        1.4005      3.62704 
         1.401      3.59726 
         1.403      3.32994 
         1.406      3.03194 
          1.41      2.77243 
         1.414      2.61205 
         1.418      2.53772 
       1.42212      2.54757 
         1.424       2.5869 
         1.426      2.68427 
         1.427      2.76251 
          1.43       3.1639 
         1.434      3.80395 
         1.436       4.0179 
         1.438      3.99461 
          1.44      3.76852 
         1.442      3.48897 
         1.444      3.26181 
         1.446      3.13582 
         1.448      3.17544 
          1.45      3.49549 
       1.45075      3.53729 
         1.451      3.54452 
       1.45175      3.37659 
       1.45297      3.09463 
         1.454      2.92221 
         1.456        2.755 
          1.46      2.64606 
          1.47      2.63708 
          1.48      2.56017 
       1.49969      2.61648 
          1.51      2.69943 
          1.52      2.93948 
         1.525      2.98541 
         1.528      3.04831 
          1.53       3.1411 
         1.532      3.28891 
         1.538       3.9138 
          1.54      3.96618 
         1.542       3.8295 
         1.544      3.55743 
         1.548      2.95987 
          1.55      2.72344 
         1.552      2.53454 
         1.554      2.42539 
         1.556      2.40617 
       1.55844      2.49579 
       1.55862      2.51259 
       1.55895       2.5535 
         1.559      2.56515 
        1.5591      2.60753 
        1.5593      2.70842 
        1.5594      2.76446 
        1.5596       2.9127 
       1.55975      3.02569 
        1.5598      3.05638 
        1.5599      3.09533 
       1.55998      3.11035 
       1.55999      3.11045 
       1.56004      3.10402 
       1.56015      3.06022 
       1.56026      2.99378 
       1.56052      2.80315 
        1.5606      2.75428 
        1.5607      2.70551 
        1.5609      2.62094 
         1.561      2.58385 
       1.56113      2.55655 
        1.5615      2.49283 
         1.562      2.45884 
       1.56212      2.45751 
         1.564      2.45968 
         1.566      2.51212 
         1.575       2.8536 
          1.58      2.78958 
         1.585      2.61368 
         1.591      2.47201 
         1.595      2.44383 
         1.598      2.51924 
         1.599      2.61279 
           1.6      2.80299 
         1.601      3.01587 
         1.602      3.16197 
         1.603      3.20661 
         1.604      3.18166 
         1.605      3.05649 
          1.61       2.7844 
          1.62      2.33563 
         1.624      2.28801 
       1.62494      2.34379 
       1.62513      2.36646 
         1.627      2.65346 
         1.628      2.78018 
         1.629        2.787 
          1.63      2.67191 
         1.631      2.52415 
         1.632      2.40585 
         1.634      2.30232 
       1.63597      2.39479 
         1.637       2.4847 
       1.63794      2.44608 
       1.63812      2.42893 
          1.64      2.21097 
         1.642      2.12356 
         1.644      2.08118 
         1.648      2.06142 
       1.65006      2.06326 
         1.654      2.13587 
         1.658      2.27123 
         1.664      2.53266 
         1.666       2.6558 
          1.67      2.69507 
       1.67412      2.48387 
         1.676      2.42367 
       1.67806      2.44755 
         1.682      2.63414 
           1.7      2.86786 
         1.708       3.0631 
         1.724      3.12609 
       1.72794      3.07073 
          1.73      2.96958 
        1.7315       2.8193 
        1.7335       2.5131 
         1.734      2.45472 
        1.7345      2.42911 
         1.735      2.44605 
        1.7355      2.50596 
        1.7365      2.70924 
         1.739      3.25873 
         1.743       3.9911 
         1.744      4.08857 
         1.745      4.08353 
         1.748      3.77267 
          1.75      3.50051 
         1.752      3.24207 
         1.754      3.06869 
         1.758      2.84233 
         1.762      2.69796 
         1.776      2.34253 
         1.778      2.32044 
       1.78212      2.33117 
         1.784      2.36279 
         1.786      2.30234 
           1.8      2.17335 
         1.828      1.94632 
        1.8385      1.86557 
        1.8425      1.77555 
         1.846      1.66455 
         1.847      1.67067 
         1.848      1.72176 
         1.849      1.82277 
        1.8505      2.05266 
       1.85337      2.63238 
        1.8545      2.84958 
        1.8555      2.96899 
        1.8565        2.991 
       1.85748      2.91925 
         1.861      2.42297 
         1.864      2.10734 
         1.866      2.01028 
       1.87388      2.07754 
          1.88      2.20459 
         1.886      2.37681 
         1.888      2.48426 
          1.89      2.52277 
         1.892       2.6209 
         1.896       2.9715 
       1.89691       3.0386 
           1.9      3.16443 
         1.902      3.14141 
         1.904      3.01918 
         1.908      2.71526 
          1.91      2.63499 
         1.914      2.58647 
       1.91963      2.58971 
       1.92025      2.59463 
         1.924      2.66453 
          1.93      2.70994 
         1.932      2.75419 
         1.938      3.05333 
         1.946      3.13548 
          1.95      3.25325 
         1.952      3.26201 
         1.954      3.20672 
         1.956      3.07012 
          1.96      2.71105 
         1.962      2.57695 
         1.968      2.30411 
         1.972       2.1073 
         1.974      2.02994 
       1.97419      2.02907 
       1.97606      2.03147 
          1.98      2.12304 
         1.982      2.19212 
         1.984      2.29617 
          1.99      2.74316 
         1.992      2.87252 
         1.994      2.93673 
         1.996      2.95726 
         1.998      2.90461 
             2      2.89216 
         2.002      2.97073 
         2.004       3.1085 
         2.006      3.28743 
         2.008      3.42407 
          2.01      3.49081 
       2.01187      3.47124 
         2.016      3.32138 
         2.024      3.20435 
          2.03      3.02843 
         2.034      2.87571 
         2.036       2.7305 
         2.038      2.66032 
          2.04       2.7319 
         2.042      2.83641 
        2.0455      3.14907 
        2.0475      3.37665 
        2.0485      3.42034 
       2.04944      3.38553 
          2.05       3.3345 
        2.0545      2.74471 
        2.0605      2.05023 
        2.0615      1.97455 
        2.0625      1.95169 
       2.06344      1.98425 
       2.06375      2.00953 
         2.065      2.12659 
        2.0685      2.50818 
        2.0715      2.72134 
         2.076       2.9036 
         2.084      3.08676 
         2.086      3.19596 
         2.088      3.23127 
       2.09175      3.20559 
         2.093      3.17382 
         2.098       3.0236 
           2.1      2.95182 
         2.104      2.82295 
         2.106      2.78019 
         2.108      2.77822 
         2.112      2.55781 
         2.116      2.53002 
         2.122      2.60732 
         2.128      2.65589 
         2.136      2.57264 
         2.138      2.58004 
          2.14      2.49761 
         2.142      2.52261 
          2.15      2.76323 
          2.16      3.12353 
         2.164      3.20501 
         2.166      3.32902 
       2.16788      3.24276 
         2.172      2.95763 
         2.182      2.97286 
         2.184      2.91401 
         2.188      2.70007 
         2.192      2.56222 
         2.194      2.54708 
         2.196       2.5771 
         2.198      2.65612 
         2.204      3.04841 
         2.206      3.10552 
         2.208      3.09814 
          2.21      3.00079 
         2.214      2.72866 
         2.216      2.62532 
         2.218      2.60687 
         2.224      2.71143 
         2.228      2.67649 
         2.232      2.55459 
         2.236      2.52151 
       2.24006      2.57683 
         2.246      2.83696 
          2.25      2.88097 
         2.254       2.8028 
         2.258      2.69787 
         2.266      2.69499 
         2.276       2.8367 
          2.28      2.82902 
         2.288      2.71735 
          2.31      2.90742 
         2.312      2.87021 
         2.316      2.68914 
         2.322      2.34358 
         2.326      2.23011 
       2.32775      2.22917 
         2.328      2.22967 
          2.33      2.26946 
         2.332      2.35009 
         2.336      2.57095 
         2.338      2.65846 
          2.34      2.70312 
       2.34403      2.68808 
         2.346      2.58849 
       2.34788      2.58602 
         2.348       2.5868 
         2.352      2.71548 
         2.354      2.70592 
         2.356      2.59699 
         2.358      2.41131 
         2.362       2.1129 
         2.364      2.00385 
         2.366      1.94742 
         2.374      1.87178 
          2.38      1.75977 
         2.384      1.74538 
         2.388      1.79902 
         2.392       1.9324 
         2.398      2.21309 
           2.4      2.28595 
         2.402      2.34332 
         2.406       2.3692 
         2.412      2.34423 
         2.416      2.38748 
         2.418       2.4177 
          2.42      2.48719 
         2.422      2.50252 
         2.424      2.43062 
         2.426       2.2957 
         2.432      1.98411 
         2.434      1.91779 
         2.446      1.70222 
          2.45      1.65581 
         2.454      1.64064 
       2.45806      1.69787 
         2.464      1.89137 
         2.468      2.06892 
         2.482       2.8536 
          2.49      3.17198 
           2.5      3.50524 
         2.502      3.58468 
         2.506      3.62461 
       2.50975      3.55407 
         2.516      3.36958 
         2.526      3.39898 
          2.53      3.27403 
         2.534      3.03332 
         2.536      2.88414 
          2.54       2.7205 
         2.546      2.56483 
         2.548      2.54047 
          2.55      2.55712 
         2.552      2.62827 
         2.554      2.73301 
         2.556      2.89124 
         2.562      3.47911 
         2.564      3.60669 
         2.566      3.67397 
       2.57013      3.66108 
          2.59      3.06212 
           2.6      2.66281 
         2.605       2.4896 
          2.61      2.37236 
         2.615      2.33294 
       2.62016      2.36539 
          2.63      2.50401 
         2.635       2.4979 
          2.64      2.46209 
         2.645      2.49473 
          2.65      2.59723 
         2.655       2.7471 
          2.66       2.8103 
         2.665      2.71097 
          2.67      2.45695 
         2.675      2.11009 
          2.68       1.9338 
       2.68492      1.94333 
        2.6875      2.01319 
         2.695      2.22205 
           2.7      2.25977 
         2.705      2.21233 
         2.715      2.26918 
         2.725      2.33592 
       2.73625      2.21533 
          2.74      2.16983 
         2.745      2.19914 
          2.75       2.2635 
         2.755      2.31591 
         2.765      2.28985 
          2.77      2.46617 
          2.78      3.05647 
         2.785      3.10055 
          2.79      2.95398 
         2.795      2.73792 
           2.8      2.48897 
         2.805       2.2618 
          2.81      2.07602 
         2.825      1.89253 
         2.845      1.68927 
          2.85      1.66355 
         2.855      1.65794 
          2.86      1.68571 
         2.865      1.82559 
          2.87      2.00415 
         2.875      2.09429 
          2.88      2.06674 
         2.885      1.94687 
          2.89      1.87296 
         2.895      1.97687 
           2.9      2.19035 
         2.905      2.37389 
          2.91      2.39824 
       2.91497      2.27069 
       2.91919      2.06635 
          2.92      2.02927 
         2.925       1.8839 
          2.93      1.87674 
         2.935      1.92934 
          2.94      1.92371 
         2.945      1.86915 
          2.95      1.78824 
       2.95492      1.80965 
         2.965      1.98118 
          2.97      2.00665 
          2.98      1.99088 
         2.985      2.04996 
         2.995      2.22728 
             3      2.29561 
         3.005      2.34757 
          3.01      2.35269 
         3.015       2.3064 
          3.02      2.13802 
         3.025      1.92695 
          3.03       1.8021 
         3.045      1.69182 
          3.05      1.62646 
         3.055      1.61381 
       3.06016       1.6906 
          3.07      1.89021 
         3.085      1.94927 
         3.095      2.03293 
           3.1      2.04445 
         3.105      2.02297 
          3.11      1.96654 
          3.12      1.79731 
         3.125      1.77756 
          3.13      1.86337 
         3.135       2.0227 
          3.14      2.14639 
         3.145      2.18293 
          3.15      2.05711 
         3.155      1.79822 
          3.16      1.58446 
         3.165      1.45462 
          3.17      1.43356 
       3.17492      1.50884 
         3.185      1.79573 
          3.19      1.90174 
           3.2      2.03889 
         3.205      2.09268 
          3.21      2.09857 
       3.21492      2.03885 
         3.225      1.76949 
          3.23      1.71437 
       3.23492      1.71802 
         3.245      1.84613 
          3.25      1.92897 
          3.26       2.0797 
         3.265      2.11165 
          3.27      2.09539 
         3.275       1.9927 
          3.28      1.85606 
         3.285       1.7473 
          3.29      1.70714 
           3.3      1.72135 
         3.305      1.65797 
          3.31        1.624 
          3.32      1.63293 
          3.35      1.86226 
         3.355      1.84876 
          3.36       1.8646 
         3.365      1.88984 
         3.375      2.04048 
          3.38      2.11723 
         3.385      2.15705 
          3.39      2.13611 
         3.395       2.0671 
           3.4      1.95252 
          3.41      1.76851 
          3.42      1.63842 
         3.425       1.5945 
         3.435      1.57851 
       3.45984      1.75898 
         3.465       1.7669 
          3.47      1.74423 
          3.48      1.74403 
         3.485      1.74424 
       3.49484      1.81189 
           3.5       1.8147 
          3.51      1.74072 
          3.52      1.57333 
         3.525      1.52394 
          3.53       1.5204 
       3.53469      1.54881 
         3.555      1.75677 
          3.56       1.7928 
         3.575      2.07784 
          3.58      2.14417 
          3.59      2.15527 
           3.6      2.05407 
          3.61      2.05703 
          3.62      2.13046 
         3.625      2.10416 
          3.63      2.03854 
          3.64      1.78419 
         3.645      1.68074 
          3.65      1.60333 
          3.66      1.51522 
          3.67      1.43939 
         3.675      1.42107 
          3.68      1.44249 
         3.685      1.48713 
         3.695      1.65305 
           3.7      1.74945 
         3.705      1.83885 
          3.71      1.90131 
         3.715      1.92485 
          3.72      1.90939 
         3.725      1.85498 
         3.735      1.68447 
        3.7373      1.65905 
          3.74      1.65209 
       3.74938      1.70906 
         3.765      1.84316 
          3.78      1.87865 
         3.795      1.81826 
           3.8      1.78325 
          3.81      1.72901 
       3.81768      1.72205 
         3.825      1.70481 
        3.8317       1.6628 
         3.835        1.635 
         3.845      1.53627 
          3.85      1.50387 
          3.86      1.48993 
         3.875      1.52236 
          3.88      1.51906 
       3.88984        1.527 
         3.895      1.56886 
           3.9      1.63814 
          3.91       1.7539 
         3.915      1.75063 
          3.93      1.63581 
         3.945      1.64423 
          3.95      1.65445 
          3.97      1.53617 
          3.98      1.54325 
          3.99      1.61121 
         3.995      1.65547 
          4.02      1.71467 
          4.03      1.74811 
         4.065      1.64745 
         4.075      1.67278 
       4.08906      1.63877 
       4.09062      1.63191 
           4.1      1.56342 
          4.11      1.55495 
       4.12031      1.63715 
         4.125      1.65626 
       4.13016      1.64561 
        4.1425      1.52811 
         4.145      1.50316 
          4.15      1.48777 
         4.155      1.50745 
          4.17      1.69982 
         4.175      1.74224 
       4.18477      1.73108 
       4.18555      1.72347 
           4.2      1.52983 
         4.215      1.40843 
          4.24      1.35865 
         4.245      1.36121 
          4.26      1.44462 
         4.275      1.44759 
          4.29      1.37395 
         4.295      1.37856 
           4.3      1.40617 
          4.32      1.58544 
          4.33      1.61175 
         4.345      1.55813 
          4.35      1.56664 
         4.375      1.64272 
       4.38016      1.63714 
          4.39      1.55064 
           4.4       1.4102 
          4.42      1.16394 
          4.43      1.09033 
          4.44      1.08878 
       4.45016      1.20109 
         4.465      1.42848 
          4.47      1.48291 
         4.475      1.48477 
         4.495      1.38975 
           4.5      1.39019 
         4.505      1.38566 
          4.52      1.45702 
          4.53      1.47412 
         4.545      1.31642 
          4.55      1.28664 
          4.56       1.2711 
          4.57      1.30225 
           4.6      1.29403 
         4.605      1.28715 
          4.62       1.3418 
         4.635      1.45742 
         4.645      1.56004 
          4.65      1.60171 
          4.66      1.60552 
          4.68      1.46431 
           4.7      1.35941 
          4.73      1.22542 
          4.74      1.26403 
          4.75       1.3965 
          4.76      1.59435 
          4.77      1.68475 
          4.78      1.67137 
          4.79      1.61775 
           4.8      1.52234 
          4.82      1.35997 
          4.83      1.25861 
          4.84      1.20299 
          4.85      1.19318 
          4.87      1.16612 
       4.87984      1.19391 
           4.9      1.34006 
          4.91      1.40128 
          4.94      1.41834 
          4.95      1.34908 
          4.96      1.29557 
          4.97      1.28712 
          4.98      1.36727 
          4.99       1.4754 
             5      1.54748 
          5.01      1.58124 
          5.03      1.50939 
          5.05      1.49991 
          5.07      1.42788 
          5.09      1.40266 
           5.1       1.4193 
          5.13       1.3781 
          5.15      1.36977 
       5.16247      1.34833 
          5.18      1.28631 
           5.2      1.14134 
       5.20328      1.12737 
          5.21       1.1102 
          5.22      1.11216 
          5.23      1.16174 
          5.24      1.18265 
          5.25      1.18374 
          5.26      1.17609 
          5.27      1.14993 
       5.28969      1.19709 
           5.3      1.24443 
          5.32      1.35457 
          5.33      1.42183 
       5.34906      1.43437 
          5.37      1.38291 
          5.39      1.40423 
       5.39984      1.37808 
          5.42      1.22135 
          5.43      1.15969 
          5.44      1.12414 
          5.47      1.20026 
          5.49      1.17085 
       5.50606      1.10647 
          5.51      1.09178 
        5.5181      1.07531 
       5.54953      1.08747 
          5.56      1.09486 
          5.57      1.15483 
          5.58      1.26513 
       5.58938      1.25849 
           5.6      1.21855 
          5.61       1.1727 
       5.62252      1.15434 
        5.6359      1.14901 
       5.64494       1.1522 
          5.66      1.16223 
          5.69       1.2062 
       5.70059      1.19958 
        5.7054      1.18808 
          5.74      1.08036 
          5.75       1.0558 
          5.76      1.04207 
          5.78      1.09689 
           5.8      1.21257 
          5.81       1.2568 
        5.8225      1.23532 
         5.825      1.22929 
          5.83      1.20789 
          5.84       1.1575 
          5.85      1.14087 
         5.855      1.14314 
          5.86      1.15935 
       5.87885      1.27826 
          5.89      1.34266 
           5.9      1.37047 
       5.90565      1.37447 
       5.92099       1.3669 
       5.92611      1.36062 
          5.95      1.30434 
          5.97      1.21712 
             6      1.20614 
          6.03      1.22761 
          6.05      1.16225 
          6.06      1.15233 
       6.10063      1.23492 
          6.11      1.24219 
       6.12969      1.12838 
          6.14      1.04474 
          6.15     0.988807 
          6.17     0.935848 
          6.18     0.923929 
        6.1825     0.926266 
       6.20092     0.969567 
          6.23     0.983195 
          6.25      1.06025 
          6.26      1.09295 
          6.29      1.14906 
         6.345      1.09281 
          6.37      1.08312 
       6.38875      1.10589 
          6.42      1.16506 
          6.45      1.26884 
       6.45953      1.27087 
       6.46976      1.25599 
          6.48      1.22981 
           6.5      1.10176 
          6.52      1.02311 
       6.52203      1.02098 
       6.54002       1.0277 
          6.57      1.07294 
           6.6      1.07537 
       6.60995      1.07512 
       6.61991      1.05465 
          6.65     0.912422 
          6.66     0.886306 
       6.67997     0.917737 
       6.70565      1.02663 
          6.72      1.08021 
       6.74531        1.116 
          6.75      1.11652 
       6.75681      1.11209 
       6.77723      1.08516 
          6.79      1.06128 
           6.8       1.0381 
          6.83       1.0004 
       6.85063       1.0171 
          6.89      1.09853 
       6.90467      1.11074 
       6.90688      1.11075 
       6.91019      1.11023 
          6.94      1.03496 
          6.96     0.974846 
       6.97063     0.948314 
          6.99     0.931571 
          7.03     0.975705 
       7.04055     0.972745 
       7.06894     0.905026 
       7.07584      0.88069 
          7.09     0.823616 
           7.1     0.850573 
          7.14      0.82848 
       7.19844     0.873745 
          7.25     0.887775 
        7.2625     0.884021 
          7.31     0.859759 
          7.32     0.855435 
          7.39     0.792883 
       7.39875     0.793013 
          7.46     0.817255 
           7.6     0.968547 
       7.65625     0.962561 
        7.6625     0.960285 
           7.7     0.932162 
          7.75     0.861906 
          7.76     0.851541 
           7.8     0.838603 
          7.86     0.851585 
          7.88      0.81582 
           7.9     0.821892 
          7.92     0.884742 
          7.94     0.928712 
       7.98031     0.925222 
             8     0.882973 
          8.08     0.782039 
          8.12     0.826309 
       8.14992      0.79309 
          8.18     0.762213 
           8.2     0.761437 
           8.3     0.807382 
           8.4     0.829105 
           8.5     0.825837 
           8.6     0.816361 
           8.7     0.785693 
           8.8     0.738043 
          8.95     0.698037 
             9     0.694698 
           9.2     0.707124 
       9.36092      0.73853 
           9.4     0.745534 
           9.5     0.749749 
           9.6     0.745292 
           9.7     0.748826 
           9.8     0.761344 
            10     0.749414 
       10.1411     0.721036 
          10.2     0.709181 
         10.25     0.702371 
         10.35     0.711751 
          10.4     0.730941 
          10.5     0.761316 
         10.55     0.772838 
       10.6988     0.742836 
          10.8     0.722445 
          10.9     0.721488 
            11      0.74953 
         11.15     0.783137 
          11.2     0.780006 
         11.25     0.789874 
       11.3571     0.770684 
          11.5     0.777163 
          11.6     0.791255 
       11.7622     0.774336 
          11.8      0.77144 
       11.9665     0.764935 
            12     0.763625 
       12.1693     0.758863 
       12.2028     0.757921 
       12.3749     0.768719 
          12.4      0.77029 
          12.5     0.766956 
       12.6764     0.765574 
       12.8552     0.764173 
       12.9618     0.763337 
            13     0.763287 
       13.1834     0.766461 
       13.3694      0.76968 
        13.558     0.772944 
       13.7493     0.776255 
          13.8     0.777132 
       13.9947     0.779127 
            14     0.779181 
       14.1975     0.784473 
          14.2      0.78454 
          14.4     0.785898 
          14.5     0.785577 
          14.6     0.786256 
        14.806     0.790594 
       14.8311     0.791123 
            15     0.792973 
       15.2116     0.797344 
       15.4262     0.801777 
       15.6439     0.806273 
       15.8646     0.810832 
       16.0884     0.815455 
       16.3154     0.820144 
       16.5456     0.824899 
        16.779     0.829721 
            17     0.834286 
       17.2398     0.836915 
       17.4831      0.83958 
       17.7297     0.842283 
       17.9799     0.845024 
            18     0.845245 
       18.2539      0.85162 
       18.5115     0.858084 
       18.7726      0.86464 
       19.0375     0.871289 
          19.2     0.875368 
       19.4709     0.881427 
       19.7456     0.887571 
            20     0.893262 
            20        0.945 
       20.2822     0.952257 
       20.5683     0.959616 
       20.8585     0.967079 
       21.1528     0.974648 
       21.4512     0.982323 
       21.7538     0.990106 
       22.0607     0.997999 
        22.372        1.006 
       22.6876      1.01412 
       22.9082      1.01979 
       23.2314      1.02723 
       23.5592      1.03476 
       23.8916       1.0424 
       24.2286      1.05015 
       24.5704      1.05801 
       24.9171      1.06598 
       25.2686      1.07406 
       25.5163      1.07976 
       25.8763      1.08661 
       26.2414      1.09356 
       26.6116       1.1006 
        26.987      1.10774 
            27      1.10799 
       27.3809      1.11332 
       27.7672      1.11873 
        28.159      1.12422 
       28.5532      1.12974 
        28.956      1.13404 
       29.3645      1.13839 
       29.7788      1.14281 
       30.1989      1.14729 
        30.625      1.15184 
            31      1.15584 
       31.4374      1.15943 
       31.8809      1.16308 
       32.3307      1.16677 
       32.7868      1.17052 
       33.2494      1.17432 
       33.7184      1.17818 
            34      1.18049 
       34.4797      1.18309 
       34.9661      1.18572 
       35.4594      1.18839 
       35.9597       1.1911 
       36.0437      1.19156 
       36.5522      1.19247 
            37      1.19327 
        37.522      1.19243 
       38.0514      1.19158 
       38.5882      1.19072 
            39      1.19005 
       39.5502      1.18699 
       40.1082      1.18388 
       40.6741      1.18073 
       41.2479      1.17754 
       41.8298      1.17429 
            42      1.17335 
       42.5925      1.16906 
       43.1934      1.16471 
       43.8028       1.1603 
       44.4208      1.15583 
       45.0475      1.15129 
        45.683      1.14669 
       46.3276      1.14203 
       46.9812       1.1373 
        47.644       1.1325 
       48.3161      1.12764 
       48.9978       1.1227 
            49      1.12269 
       49.6913      1.11595 
       50.3924      1.10911 
       51.1033      1.10218 
       51.8243      1.09515 
            52      1.09344 
       52.7336      1.08478 
       53.4776      1.07599 
       54.2321      1.06708 
       54.9972      1.05805 
       55.7731      1.04889 
         56.56       1.0396 
       57.3579      1.03018 
       58.1671      1.02062 
       58.9878      1.01093 
         59.82      1.00111 
       60.6639     0.991143 
       61.5198     0.981038 
       62.3877     0.970791 
       63.2679     0.960398 
       64.1605      0.94986 
       65.0657     0.939172 
       65.9837     0.928334 
       66.9146     0.917343 
       67.8586     0.906197 
        68.816     0.894893 
       69.7868      0.88343 
       70.7714     0.871806 
            71     0.869107 
       72.0017     0.857152 
       73.0175     0.845028 
       74.0476     0.832733 
       75.0923     0.820265 
       76.1517     0.807621 
       77.2261     0.794798 
       78.3156     0.781795 
       79.4205     0.768608 
        80.541     0.755235 
       81.6773     0.741673 
       82.8296      0.72792 
            83     0.725887 
        84.171     0.712807 
       85.3585     0.699543 
       86.5627     0.686091 
            87     0.681207 
       88.2274     0.668425 
       89.4721     0.655463 
       90.7344     0.642319 
       92.0145     0.628989 
       93.3127      0.61547 
       94.6292     0.601762 
            95       0.5979 
       96.3403     0.585333 
       97.6995     0.572589 
       99.0778     0.559666 
       100.476      0.54656 
       101.893     0.533269 
           102     0.532267 
       103.439     0.519102 
       104.898     0.505751 
           106     0.495672 
       107.495      0.48319 
           108     0.478979 
       109.524     0.467567 
           110        0.464 
       111.552     0.453892 
       113.126     0.443642 
           114     0.437947 
       115.608     0.428579 
       117.239     0.419078 
           118     0.414647 
       119.665     0.405699 
       121.353     0.396625 
       123.065     0.387422 
           124     0.382397 
       125.749     0.373738 
       127.524     0.364957 
       129.323     0.356053 
           130       0.3527 
       131.834     0.342927 
           132     0.342043 
       133.862      0.33084 
       135.751      0.31948 
           136     0.317981 
       137.919     0.307257 
           138     0.306803 
       139.947     0.297552 
           140       0.2973 
       141.975     0.289407 
           142     0.289308 
           144      0.28217 
           146     0.275802 
           148     0.270133 
           150       0.2651 
//
#-------------------------------------------------------------------------------
